"AF3","AF4","F3","F4","F7","F8","FC5","FC6","O1","O2","P7","P8","T7","T8",
-7.5096,-1.0731,19.3111,24.675,81.5363,-42.9141,-7.5096,-18.2385,-1.0731,-8.5832,4.2908,25.7486,1.0731,18.2385,
-10.7284,1.0731,15.0197,18.2385,92.2652,-40.7679,-8.5822,-19.3111,-1.0731,-11.801,5.3644,32.1852,-7.5096,16.0934,
-9.1195,-3.7546,18.7748,8.0459,93.8741,-47.7417,-1.6094,-26.2849,-4.8282,-0.5368,8.0459,23.0662,0.5368,15.556,
-4.8282,-8.0459,19.8474,6.9733,88.5101,-56.3244,-6.9733,-33.7951,-10.1921,-0.5368,5.9007,12.3373,0.5368,13.4109,
3.7546,-12.3373,21.9936,9.1195,82.0726,-55.2519,-3.7546,-30.5763,-3.7546,-4.8282,3.7546,5.9007,-5.9007,12.3383,
11.8015,-13.9467,26.8207,15.0203,85.8271,-52.5699,5.3639,-19.3116,-3.2188,1.0726,-5.3639,-1.0726,-5.3639,12.8741,
10.1916,-13.4104,25.2118,15.5565,89.5822,-54.1788,0.53629,-19.8479,-6.9738,-0.53629,-16.6291,1.6089,-4.8276,9.119,
6.437,-6.437,18.2385,13.9472,91.1916,-47.2054,1.0731,-21.4573,-2.1457,-3.2183,-2.1457,8.5822,-1.0731,9.6558,
1.6089,-0.53629,19.8479,15.5565,97.0923,-43.4499,0.53629,-21.9931,-4.8276,-5.9002,5.9002,-2.6825,-6.9738,11.2652,
8.0464,-0.53629,34.8479,21.9931,101.3837,-48.8148,10.1916,-20.9205,-1.6099,0.53629,-2.6825,-10.1926,-1.6099,17.7017,
1.0726,-8.5827,28.9669,6.9931,96.556,-57.9338,5.3639,-22.5294,-6.4375,0,-11.8015,-16.0928,0,10.7279,
-10.1926,-9.119,17.7017,0.53629,107.8212,-47.7422,-0.53629,-16.6291,-12.3378,0.53629,0.53629,-4.8276,0.53629,10.1916,
-13.4109,-10.1921,23.0662,11.2647,92.8212,-58.4696,-0.5368,-21.9936,-2.682,-5.9007,11.2647,4.8282,0.5368,17.7022,
-1.6099,-5.9013,29.5032,13.4104,77.8212,-59.5427,2.6815,-26.2855,-0.53629,-15.5565,0.53629,2.6815,-3.7551,18.7743,
12.3383,-2.682,24.1398,5.9007,92.8212,-44.5427,2.682,-27.3575,-5.9007,-8.0459,-3.7546,5.9007,-3.7546,12.3383,
16.6286,-1.6094,21.9936,6.9733,107.8212,-29.5427,-5.9007,-41.3052,-10.1921,-10.1921,1.6094,6.9733,-12.3383,11.2647,
16.0934,7.5096,33.2588,21.9733,92.8212,-26.8212,-6.437,-43.9867,-10.7284,-19.3111,3.2183,-3.2183,-16.0923,11.802,
17.1654,3.2188,35.4045,27.8943,77.8212,-30.0395,0,-33.2583,-11.8015,-12.8741,-5.3639,0,-8.5827,8.5827,
19.3111,-2.1457,20.4045,23.6025,84.7551,-20.3837,2.1457,-31.1126,-9.6558,-2.1457,-11.801,15,-5.3645,13.9472,
4.3111,-6.9733,5.4045,9.1195,77.7812,-19.8474,1.6094,-44.5229,-2.682,-1.6094,3.199,26.2849,-2.682,23.0662,
-8.5827,-11.8015,0,8.5827,64.3703,-25.7492,-3.2188,-48.2785,0,0,16.0918,19.3106,-2.1462,20.3842,
1.6094,-11.2647,10.1921,23.5827,62.761,-31.6489,-10.1921,-35.9402,-5.9007,-1.6094,11.2647,34.3106,-6.9733,11.2647,
4.2914,-16.0928,4.2914,19.3106,62.2252,-31.1131,-6.4375,-41.841,-15.0203,-7.5101,3.2188,37.5496,-3.2188,5.3639,
-1.0731,-13.9472,5.3645,4.3106,66.517,-20.3837,-2.1457,-46.1318,-12.8736,-6.437,7.5096,25.7486,1.0731,12.8746,
3.2188,-19.3116,13.9467,5.3639,68.6617,-20.3842,-3.2188,-38.6222,-3.2188,-7.5101,19.3116,13.9467,-5.3639,16.0928,
8.0459,-31.6489,15.556,15.556,64.9071,-34.8677,-10.1921,-34.8677,-5.9007,-10.1921,9.1185,6.9733,-9.1195,5.9007,
1.0731,-35.4039,13.9472,17.1659,53.643,-35.4039,-11.801,-32.1852,-8.5822,-5.3645,7.5106,20.3847,-1.0731,8.5832,
-13.9269,-42.3768,5.9007,9.1195,38.643,-32.7215,-9.1185,-39.159,1.6094,-5.9007,16.6296,31.6489,-1.6094,15.5571,
-12.8741,-38.6222,10.7289,20.3842,39.6958,-25.7481,-17.1654,-39.6948,4.2914,-4.2914,16.0928,25.7481,-5.3639,11.8015,
0,-36.477,22.5294,25.7481,40.7684,-25.7481,-19.3116,-30.0395,0,0,9.6553,10.7481,-5.3639,10.7289,
-1.0726,-39.6948,18.239,16.0928,38.6222,-31.1121,-7.5101,-31.1121,1.0726,-1.0726,6.4375,11.8015,-4.2914,13.9477,
0.5368,-25.2113,12.3383,28.4301,53.6222,-19.8474,-12.3373,-33.7951,-0.5368,-6.9733,2.682,25.2124,-5.9007,12.3383,
10.7284,-16.0923,18.2385,38.6227,68.6222,-16.0923,-15.0197,-31.1126,-1.0731,-9.6558,1.0731,22.5299,-5.3645,9.6558,
15.0203,-24.6756,21.4568,30.0395,75.0992,-17.1654,-9.6553,-36.477,-3.2188,-6.4365,3.2188,16.0928,-5.3639,13.9477,
3.7551,-33.7946,13.4104,20.9205,69.198,-19.8479,-16.6291,-43.4509,-6.9738,-3.7551,3.7551,6.9738,-9.119,12.3378,
-0.5368,-29.5027,14.4835,23.0662,73.4899,-25.2113,-12.3373,-32.7215,0.5368,-3.7546,16.6296,8.0459,-2.682,14.4835,
-3.2188,-27.8943,7.5101,15.0192,69.7353,-25.7481,-4.2914,-28.9669,0,-7.5101,10.7279,4.2914,0,18.238,
-5.3639,-28.9669,-3.2188,13.9467,60.079,-16.0928,-1.0726,-27.8943,5.3639,2.1462,1.0726,-2.1452,3.2188,22.5294,
-3.2178,-23.6019,0,25.7492,61.1526,-6.4365,-10.7279,-22.5294,0,-3.2178,3.2188,1.0736,1.0736,19.3116,
3.7551,-19.8479,11.2652,28.4306,75.6355,-0.53629,-8.0464,-27.357,-6.9738,-14.4829,0.53629,8.0464,-3.7551,15.5565,
4.8276,-29.5032,0.53629,13.4306,63.8351,-4.8276,1.6099,-30.5758,-0.53629,-10.1916,-1.6089,4.8276,-5.9002,13.4114,
14.4835,-16.6286,-0.5368,8.0459,68.1259,5.9007,-0.5368,-18.7748,0.5368,-8.0459,-2.682,6.9733,-3.7546,18.7748,
16.6296,-11.2647,11.2647,19.8484,70.2721,-4.8271,-2.682,-27.3575,-2.682,-5.9007,-9.1185,14.4835,2.682,21.9936,
3.7551,-26.2647,0.53629,21.9941,55.2721,-19.8271,-11.2642,-38.0859,-3.7551,5.9013,-11.2642,18.7753,-0.53629,18.7753,
12.3378,-25.2118,0.53629,25.2118,40.2721,-4.8271,-12.3378,-27.357,-0.53629,8.0464,-2.6815,24.1393,-4.8276,23.0667,
23.603,-20.3832,4.2914,26.8217,40.7684,10.1729,-10.7279,-22.5294,-6.4365,-6.9536,-4.2914,12.8751,-7.5091,13.9477,
19.8479,-6.9738,0.53629,29.5032,25.7684,25.1729,-12.3378,-16.6291,-4.8276,-10.1926,4.8276,25.2118,-2.6825,13.4104,
7.5101,-16.0928,-4.2914,14.5032,10.7684,40.1729,-22.5294,-23.603,1.0726,-2.1462,16.0928,40.2118,-1.0726,19.3116,
8.5832,-31.0928,3.2183,4.2919,-4.2316,43.9867,-32.1852,-25.7476,-3.2183,-7.5096,6.437,25.2118,-6.437,15.0197,
20.3842,-16.0928,16.0928,19.2919,-19.2316,58.9867,-23.603,-11.8015,0,-8.5827,5.3639,10.2118,0,15.0192,
10.7284,-11.801,8.5832,23.6025,-34.2316,62.2257,-20.3837,-24.675,-4.2908,-12.8736,1.0731,5.3644,-1.0731,7.5106,
14.484,-13.4104,9.119,26.2844,-45.596,65.9802,-12.3378,-20.9205,-3.7551,-11.2652,-1.6089,20.3644,1.6089,16.6291,
20.3842,-16.0918,13.9477,31.1131,-39.6948,66.5165,-13.9467,-5.9205,-5.3639,-11.8005,-2.1452,18.239,0,19.3116,
17.1654,-9.6553,20.3842,41.841,-24.6948,64.3703,-21.4568,0,-8.5827,-8.5827,0,17.1654,-5.3639,12.8741,
14.484,-2.6815,13.4114,54.1788,-29.5032,63.8351,-23.0657,-5.9002,-2.6815,-2.6815,0.53629,21.9941,-0.53629,17.7027,
15.0203,-6.4365,-1.5886,39.6958,-44.5032,59.0064,-20.3842,-9.6553,-1.0726,-8.5827,1.0726,10.7289,1.0726,17.1654,
13.9472,-9.6558,2.1457,31.1126,-54.7156,61.1521,-22.5299,-9.6558,-7.5096,-13.9472,4.2908,18.2385,-2.1457,12.8746,
8.0464,-21.9931,2.6825,37.0133,-53.1062,62.7615,-31.6484,-9.119,-12.3378,-11.2652,-2.6825,30.5758,3.7551,12.3378,
2.6825,-19.8469,-3.7551,39.1595,-52.0326,67.0528,-23.0657,-2.6815,-0.53629,-0.53629,0.53629,23.0667,15.5565,25.2118,
-8.5827,-17.1654,-12.8741,35.4045,-49.3501,59.0074,-20.3832,-9.6553,0,0,3.2188,8.0667,4.2914,27.8943,
-7.5096,-13.9472,-12.8736,39.6953,-48.278,54.7156,-15.0197,-15.0197,-1.0731,1.0731,5.3645,12.8746,1.0731,20.3847,
-8.5827,-12.8741,-18.238,28.9669,-46.1323,51.4963,-13.9467,-6.4365,-1.0726,1.0726,6.4375,23.603,6.4375,15.0203,
-18.238,-26.8207,-21.4568,13.9669,-48.2785,38.6222,-20.3842,-7.5101,0,1.0726,5.3639,20.3842,0,17.1654,
-4.8282,-32.7215,-17.7022,9.1195,-54.1782,33.7951,-27.3575,-10.1921,1.6094,1.6094,8.0459,11.2647,-1.6094,24.1388,
0,-25.7481,-15.0203,9.6553,-50.4237,38.6222,-30.0395,-10.7289,-3.2188,1.0726,0,3.2188,2.1452,21.4568,
-12.8741,-31.1121,-20.3842,0,-41.841,36.477,-21.4568,-16.0928,2.1462,5.3639,4.2914,0,3.2188,15.0203,
-12.3373,-33.7951,-23.0662,10.1921,-45.5955,32.7215,-23.0662,-10.1921,5.9007,1.6094,12.3373,-1.6094,2.682,21.9936,
-17.1654,-27.8943,-17.1654,17.1654,-53.6425,33.2583,-24.6756,-5.3639,-1.0726,1.0726,5.3639,4.2914,6.4365,28.9669,
-32.1654,-28.4306,-15.5565,3.7551,-56.3249,37.0133,-24.1393,-8.0464,-0.53629,5.9002,0.53629,6.9728,3.7551,21.9931,
-19.8474,-19.8474,-11.2647,13.4098,-41.3249,42.3768,-20.921,-6.9733,3.7546,2.682,9.1185,1.6094,-1.6094,21.9936,
-22.5299,-24.675,-15.0197,15.0197,-35.4039,30.04,-19.3111,-6.437,1.0731,-1.0731,13.9472,3.2183,3.2183,22.5299,
-37.5299,-35.9402,-20.92,4.8282,-47.7417,26.2849,-20.92,-10.1921,-2.682,2.682,14.4835,18.2183,4.8282,19.8474,
-28.9669,-23.6019,-15.0192,19.8282,-32.7417,41.2849,-17.1654,-15.0192,2.1462,0,12.8741,22.5304,0,20.3842,
-15.556,-13.4109,-11.2647,34.8282,-17.7417,48.8143,-4.8282,-10.1921,3.7546,-2.682,12.3373,19.8474,2.682,23.0662,
-30.556,-17.1649,-12.8736,24.6761,-17.1649,50.4242,-5.3634,-2.1457,-2.1457,2.1457,11.802,27.8948,6.437,22.5299,
-45.556,-32.1649,-17.7022,9.6761,-32.1649,38.0864,-19.8474,-11.2647,0.5368,2.682,8.0459,16.6296,-0.5368,12.3373,
-45.0598,-33.2583,-11.8015,8.5827,-42.9136,26.8207,-16.0928,-17.1654,7.5101,3.2188,11.8015,15.0192,-3.2188,16.0928,
-39.1595,-18.7753,-15.5565,16.6291,-29.5032,32.722,-11.2652,-16.6291,-0.53629,0.53629,20.9205,19.8479,1.6089,20.9205,
-49.3506,-22.5289,-19.3111,9.6558,-25.7476,41.8415,-12.8736,-18.2375,-2.1457,2.1457,20.3847,15.0208,7.5106,17.1659,
-47.2054,-22.5299,-15.0197,11.801,-31.1126,38.6227,-13.9472,-18.2385,-2.1457,2.1457,19.3111,13.9472,7.5096,19.3111,
-46.1323,-21.4568,-10.7289,15.0203,-37.5496,36.477,-16.0928,-19.3116,-1.0726,1.0726,18.238,12.8741,7.5101,20.3842,
-44.5229,-21.9936,-6.9733,16.6296,-43.4504,32.7215,-17.7022,-20.92,-0.5368,0.5368,16.6296,11.2647,6.9733,21.9936,
-43.4499,-20.9205,-2.6825,19.8479,-48.8148,30.5758,-19.8479,-21.9931,0.53629,-0.53629,15.5566,10.1916,6.9738,23.0667,
-42.3773,-21.9931,0.53629,20.9205,-55.2513,26.2844,-21.9931,-23.0667,-0.53629,-1.6099,13.4104,8.0464,5.9002,24.1393,
-43.9867,-24.675,2.1457,21.4573,-64.3698,19.3121,-26.8212,-27.8938,-2.1457,-5.3634,8.5832,4.2919,3.2193,21.4573,
-41.8415,-26.8212,-3.2193,25.7476,-53.643,20.3837,-21.4573,-16.0934,-2.1457,7.5096,9.6548,16.0923,2.1457,21.4563,
-45.0592,-37.5491,11.7807,23.6035,-65.4434,7.5106,-23.6025,-18.2375,-8.5822,2.1457,3.2193,18.2385,-2.1457,18.2385,
-43.4509,-30.5768,21.9931,25.2118,-80.4434,0.53629,-26.2855,-21.9931,-0.53629,-1.6099,11.2642,9.119,6.9728,21.9931,
-46.1323,-31.1121,6.9931,10.7289,-65.4434,0,-20.3842,-25.7481,5.3639,7.5101,17.1654,0,6.4375,21.4568,
-43.4499,-35.9397,-8.0069,-3.7551,-50.4434,6.9738,-20.9205,-33.7946,3.7551,9.119,14.484,10.1926,3.7551,23.0667,
-41.3047,-41.3047,-1.6089,0.53629,-35.4434,-0.53629,-26.2844,-31.6484,4.8276,2.6825,10.1926,20.9205,11.2652,29.5032,
-42.9136,-40.7684,-4.2914,15.5363,-39.6948,-13.9467,-24.6756,-16.6484,6.4375,4.2914,12.8741,15.0203,11.8015,25.7481,
-45.596,-30.5758,-8.0464,29.5032,-25.2118,-1.6089,-27.358,-10.1916,1.6089,2.6825,12.3378,3.7551,1.6089,17.7017,
-49.3506,-28.9664,6.9536,30.04,-21.4573,3.2183,-35.4039,-23.6025,1.0731,2.1457,6.437,-2.1457,-1.0731,15.0197,
-47.2054,-28.9674,8.5822,30.04,-35.4039,-1.0731,-33.2588,-22.5299,-4.2919,4.2908,2.1457,6.437,1.0731,20.3837,
-37.5496,-21.4568,-6.4178,35.4045,-33.2583,6.4375,-22.5294,-17.1654,-3.2188,3.2188,4.2914,12.8741,3.2188,25.7481,
-34.8677,-19.8474,1.6094,37.0128,-20.92,14.4835,-25.2113,-17.7022,-0.5368,-1.6094,2.682,12.3373,0.5368,23.0662,
-36.4765,-19.3111,15.0197,30.04,-9.6558,20.3837,-28.9664,-13.9472,-2.1457,2.1457,6.437,10.7284,-2.1457,17.1659,
-45.0587,-30.0395,0.019747,17.1664,-22.5294,12.8751,-21.4568,-21.4568,0,8.5827,13.9477,5.365,0,10.7289,
-46.1323,-28.9669,-14.9803,16.0928,-20.3842,10.7279,-21.4568,-18.238,3.2188,5.3639,10.7279,16.0928,-3.2188,12.8741,
-33.7946,-18.7743,-14.4829,20.9205,-17.7017,9.119,-25.2118,-5.9002,3.7551,5.9002,23.0667,19.8479,-3.7551,21.9931,
-40.7684,-23.603,-17.1654,17.1654,-32.7017,1.0726,-11.8015,-13.9467,9.6553,13.9467,37.5496,9.6553,-1.0726,28.9669,
-43.4499,-34.8671,-20.9205,4.8276,-38.0859,4.8276,-6.9738,-17.7017,19.8479,20.9205,32.722,13.4104,-4.8276,38.0859,
-28.4499,-32.1847,-20.3842,-3.2188,-24.6756,9.6563,-9.6553,-6.4365,32.1857,26.8217,38.6222,20.3842,3.2188,46.1323,
-28.9669,-20.3842,-21.4568,2.1462,-36.477,-4.2914,-12.8741,-2.1462,34.3309,34.3309,47.2049,18.238,2.1462,48.2785,
-28.4306,-17.7022,-6.4568,17.1462,-44.5229,-5.9007,-3.7546,-1.6094,43.4504,47.7417,41.3042,33.238,-6.9733,56.3244,
-33.2583,-32.7022,8.5432,27.8933,-40.7684,-7.5101,-8.5827,-16.6094,28.9669,32.7417,26.3042,25.7481,-21.9733,41.3244,
-24.1388,-17.7022,-4.8282,14.4835,-25.7684,4.8282,-8.0459,-13.4109,16.6286,17.7417,13.4109,14.4835,-26.2849,27.3575,
-31.6489,-12.3383,-18.7748,0.5368,-37.0128,1.6094,-10.1921,-0.5368,14.4835,16.6286,28.4109,1.6094,-21.9936,31.6489,
-29.5032,-23.0667,-3.7748,13.4104,-35.9407,-0.53629,-11.2652,4.8276,15.5565,6.9738,39.1585,0.53629,-21.9931,37.0133,
-23.0667,-19.8479,10.1916,27.357,-20.9407,-0.53629,-10.1926,0.53629,4.8276,-8.0262,24.1585,15.5363,-29.5032,31.6484,
-21.9936,-15.556,-4.8084,18.7748,-5.9407,5.9007,-1.6094,-4.8282,9.1185,1.6094,11.2647,30.5363,-27.3575,30.5763,
-25.7486,-25.7486,-19.8084,16.0923,-20.9407,2.1457,-2.1457,-2.1457,18.2375,12.8736,26.2647,36.4765,-18.2385,39.6953,
-32.1852,-39.6953,-23.6025,12.8746,-35.9407,-12.8543,-1.0731,1.0731,22.5299,15.0197,22.5299,40.7679,-15.0197,43.9867,
-33.2578,-32.1852,-16.0923,7.5096,-24.675,-10.7284,3.2183,-3.2183,33.2578,19.3111,23.6025,43.9867,-11.801,47.2054,
-33.2583,-20.3842,-7.5101,10.7279,-38.6227,-5.3639,1.0726,-3.2188,40.7684,26.8207,38.6025,39.6948,-1.0726,56.8612,
-29.5032,-31.6484,-15.5555,10.1926,-53.6227,-19.8469,-3.7551,3.7551,33.7946,24.1393,48.8148,33.7946,-4.8276,53.1062,
-15.556,-23.0662,-6.9733,14.4835,-38.6227,-17.7022,-8.0469,6.9733,26.2849,20.92,33.8148,30.5763,-17.7022,45.5955,
-13.9467,-21.4568,2.1462,0,-23.6227,-30.0395,-21.4568,-8.0267,11.2849,5.92,18.8148,15.5763,-32.7022,30.5955,
1.0533,-14.4835,13.4109,8.0469,-8.6227,-41.3042,-14.4835,-23.0267,14.4835,-2.682,5.9007,0.5763,-25.2113,30.5763,
1.0726,-21.4568,6.4365,20.3842,6.3773,-56.3042,-18.239,-34.3309,10.7279,-1.0726,4.2914,-14.4237,-36.477,26.8207,
-1.6094,-27.3575,1.6094,18.7748,21.3773,-71.3042,-18.7748,-43.4504,9.1185,2.682,8.0459,-29.4237,-37.0138,25.2113,
4.2914,-19.3116,1.0726,10.7279,36.3773,-86.3042,-11.8015,-37.5496,6.4365,-1.0726,10.7279,-28.9669,-27.8943,23.6019,
4.8282,-15.556,0.5368,9.1195,40.2316,-82.0726,-2.682,-30.5763,10.1921,-0.5368,10.1921,-13.9669,-24.1388,24.1388,
-10.1718,-25.7486,-7.5096,5.3645,33.2588,-77.2449,-3.2183,-27.8938,15.0197,3.2183,8.5832,1.0331,-27.8938,26.8212,
-17.7017,-19.8479,-20.9205,4.8276,30.5758,-76.7081,-4.8276,-26.2844,16.6291,10.1926,14.484,9.119,-28.4306,33.7946,
-18.7753,-14.484,-29.5032,4.8276,28.4306,-79.9269,-4.8276,-30.5758,17.7017,12.3378,21.9931,5.9002,-23.0667,34.8671,
-16.6291,-20.9205,-14.5032,14.4829,25.2118,-82.0731,-3.7551,-21.9941,21.9931,9.119,21.9931,3.7551,-15.5565,35.9397,
-11.2652,-23.0667,0.4968,17.7017,25.2118,-78.8543,-5.9002,-17.7017,14.4829,1.6089,15.5565,-1.6089,-23.0667,31.6484,
-2.1457,-16.0934,2.1457,21.4563,23.6025,-82.6094,-11.802,-28.9674,7.5096,2.1457,11.801,-7.5106,-36.4775,21.4563,
2.1462,-9.6553,-1.0726,31.1131,22.5294,-85.8276,-18.238,-26.8207,8.5827,1.0726,5.3639,-5.3639,-42.9136,20.3842,
0.53629,-0.53629,4.8276,35.9407,21.9931,-86.3639,-12.3378,-18.7753,16.6291,-3.7551,0.53629,-3.7551,-42.3773,26.2844,
-2.1457,2.1457,4.2908,26.8212,22.5299,-92.2652,-13.9472,-32.1862,7.5096,2.1457,-14.4637,-4.2919,-54.7156,20.3837,
4.2914,-4.2914,-4.2914,20.3842,34.3309,-79.3906,-9.6553,-24.6756,8.5827,17.1457,-7.5101,10.7081,-46.1323,21.4568,
-6.9733,-19.2914,-19.2914,14.4835,24.1388,-72.4173,-9.1195,-15.556,6.9733,15.556,7.4899,16.6286,-47.7417,18.7748,
-6.9733,-9.1195,-33.7951,13.4098,18.7748,-74.563,-8.0469,-10.1921,6.9733,10.1921,12.3373,6.9733,-47.7417,20.92,
1.0726,-11.8015,-28.9669,2.1452,22.5294,-89.0464,-1.0726,-17.1654,17.1654,9.6553,12.8741,-2.1462,-35.4045,24.6756,
1.0731,-24.6761,-31.1126,-1.0731,25.7476,-94.4104,-2.1457,-19.3111,16.0923,6.437,11.801,5.3644,-40.7679,24.675,
-1.6089,-23.0667,-30.5758,1.6089,23.0657,-88.5096,-10.1916,-10.1916,9.119,6.9738,11.2652,17.7017,-44.5235,28.4306,
3.2188,-26.8207,-25.7481,-5.3639,13.9467,-87.9733,-3.2188,-11.8015,19.3116,7.5101,15.0203,15.0203,-33.2583,36.477,
1.6089,-26.2855,-34.8682,-10.1926,12.3378,-92.8015,-0.53629,-19.8479,13.4104,0.53629,12.3378,2.6815,-38.0859,32.721,
0,-21.4568,-25.7481,1.0726,18.238,-99.7748,-7.5101,-15.0203,2.1452,1.0726,15.0192,0,-47.2049,27.8933,
7.5091,-21.4578,-10.7481,5.3639,20.3832,-98.7022,-17.1664,-6.4375,1.0726,0,19.3106,0,-45.0598,25.7481,
8.0464,-24.1393,-17.7017,5.9013,12.3378,-90.6553,-14.4829,-8.0464,6.9738,-3.7551,13.4104,3.7551,-32.722,25.2118,
-2.1457,-21.4573,-18.2385,20.9013,-2.1457,-99.7748,0.51706,-13.9472,17.1649,7.5096,8.5822,17.1649,-22.5299,33.2578,
3.7551,-11.2642,-6.9728,35.9013,3.7551,-100.3106,-3.7551,-20.9205,2.6825,0.53629,-0.53629,13.4104,-37.5299,28.4306,
18.7551,3.7358,6.4365,34.3308,18.7551,-85.3106,-3.2188,-9.6553,-2.1462,-7.5101,-1.0726,1.0726,-51.4963,24.6756,
33.7551,6.437,1.0731,19.3308,33.7551,-70.3106,-9.6558,2.1457,-1.0731,-4.2919,-4.2919,-6.437,-42.9141,23.6025,
18.7551,-8.563,-13.9269,11.8015,25.7492,-69.7348,-20.3832,-3.2178,0,5.365,2.1462,0,-41.841,27.8943,
6.437,-16.0934,-25.7486,15.0197,10.7492,-78.318,-7.5096,-7.5096,15,12.8736,15.0197,-1.0731,-36.4765,39.6953,
5.9002,-15.5565,-20.9205,6.9738,6.9738,-83.1457,-4.8276,-8.0464,14.4829,4.8276,5.9002,-15.5565,-38.0859,35.9397,
4.2914,-18.239,-5.9205,8.5827,1.0726,-91.1921,-4.2914,-6.4375,10.7279,4.2914,7.5101,-8.5827,-40.7684,28.9669,
12.3378,-13.4114,-0.53629,9.119,-11.2652,-90.6558,0.53629,-8.0464,15.5555,5.9002,19.8469,-10.1926,-28.4306,31.6484,
12.8741,-10.7289,-3.2188,10.7289,3.2188,-79.3906,-8.5827,-10.7289,13.9467,5.3639,15.0203,-19.3116,-19.3116,36.477,
4.2908,-23.6025,-1.0731,12.8736,18.2188,-76.1723,-16.0934,-13.9472,1.0731,1.0731,4.2908,-25.7486,-34.3116,27.8938,
19.2908,-18.7748,2.682,19.8474,29.5037,-77.7812,-1.0934,-13.4109,-0.5368,-5.9007,1.6094,-28.4301,-49.3116,21.9936,
34.2908,-10.1926,4.8276,11.2642,31.6484,-77.7817,9.119,-13.4104,11.2642,-5.9013,-4.8276,-18.7753,-41.3047,28.4306,
25.2118,-6.9728,0.53629,0.53629,18.7753,-69.1985,-1.6089,-2.6815,17.7017,9.0987,-3.7551,-3.7753,-27.357,39.1595,
11.2652,-8.0464,-13.4104,5.9002,3.7753,-68.1259,-5.9002,0.53629,15.5566,15.5566,3.7551,-2.6825,-37.0133,37.0133,
26.2652,-10.7289,-13.9467,6.4375,0,-69.7348,0,-2.1452,24.6756,11.8015,15.0203,-8.5827,-36.477,31.1121,
28.4306,-11.2652,-19.8479,-0.53629,10.1916,-63.8346,-15,-3.7551,14.4829,6.9728,9.119,0.53629,-33.7946,26.2844,
21.4563,-10.7284,-27.8948,-2.1457,3.2183,-59.0069,-21.4573,-6.437,9.6548,10.7284,15.0197,2.1457,-35.4039,32.1852,
28.4306,-9.119,-31.6484,-5.9002,-11.7817,-61.6884,-6.4573,4.8276,24.6548,24.1393,30.0197,-4.8276,-20.9205,45.596,
43.4306,-2.682,-31.6489,-14.4835,-3.7546,-68.1254,2.682,9.1195,33.7951,20.921,20.921,-6.9733,-12.3373,43.4504,
58.4306,10.1916,-16.6489,-8.0464,11.2454,-61.6889,-9.12,-0.53629,18.7951,5.921,5.921,-13.4114,-20.9205,32.721,
73.4306,24.675,-1.6489,6.437,23.6025,-50.4242,-2.1457,-3.2183,3.7951,-9.079,-1.0731,-28.4114,-34.3314,28.9664,
88.4306,37.0133,-1.6089,14.484,38.0859,-41.3047,6.9738,0.53629,-0.53629,-6.9728,-3.7551,-24.1393,-30.5758,30.5758,
103.4306,28.9664,2.1457,17.1649,53.0859,-45.0592,6.437,-2.1457,-11.801,-9.6558,-17.1659,-18.2385,-32.1852,24.675,
116.4039,31.6494,17.1457,30.5768,68.0859,-38.0859,3.7551,-3.7551,-19.8479,-17.7017,-21.9931,-24.1393,-41.3047,23.0667,
108.8943,42.3778,19.8474,32.7215,82.0726,-32.7215,1.6094,-1.6094,-12.3373,-15.556,-15.556,-28.4301,-41.3042,23.0662,
105.1393,33.2588,4.8474,17.7215,81.5363,-47.7215,1.0731,-1.0731,-7.5096,-9.6558,-11.801,-27.8938,-37.5491,23.6025,
90.1393,18.2588,-4.2914,2.7215,66.5363,-62.7215,6.4375,4.2914,-1.0726,1.0726,-6.4375,-25.7481,-23.603,33.2583,
75.1393,3.2588,-17.7017,-11.2652,51.5363,-77.7215,2.6825,-0.53629,13.4104,8.0464,-4.8276,-21.9931,-16.6291,34.8671,
60.1393,3.7551,-27.357,-6.9728,36.5363,-71.3437,-8.0464,8.0464,17.7027,6.9738,-3.7551,-14.4829,-19.8469,37.0133,
45.1393,-3.7551,-25.2118,-11.2642,21.5363,-67.0523,-9.119,13.4114,12.3378,3.7551,3.7551,-24.1382,-23.0657,37.0133,
30.1393,2.6825,-13.4104,-10.1916,6.5363,-65.9797,-0.53629,0.53629,18.7753,11.2652,4.8276,-24.1393,-14.4829,34.8671,
21.4568,15.0203,-9.6553,4.2914,-8.4637,-66.516,0,0,21.4568,11.8015,-1.0726,-23.6019,-10.7279,39.6958,
6.4568,11.2652,-6.9738,4.8276,-23.4637,-75.636,-4.8276,10.1916,13.4104,3.7551,-0.53629,-38.6019,-14.484,37.0133,
0.53629,8.0464,2.6815,9.119,-8.4637,-71.3447,-9.12,8.0464,1.6089,-0.53629,-8.0464,-44.5235,-21.9941,23.0657,
12.3378,9.119,5.9002,17.7017,4.8276,-60.6158,-6.9738,0.53629,-0.53629,-0.53629,-20.9205,-30.5758,-27.358,23.0657,
12.3373,15.556,9.1185,20.92,-8.0469,-53.1062,-3.7556,8.0459,1.6094,-1.6094,-19.8484,-17.7022,-28.4311,38.0657,
6.437,18.2385,11.801,19.3111,2.1457,-54.7156,-2.1457,17.1649,-4.2919,-3.2183,-9.6558,-13.9472,-33.2588,33.2578,
4.2919,3.2385,3.2193,7.5106,8.5832,-50.4232,-2.1457,7.5106,-8.5822,-10.7284,-8.5822,-23.6025,-37.5491,18.2578,
8.0459,9.1195,-2.682,8.0459,10.1921,-35.4232,0.5368,8.0459,-2.682,-3.7546,-0.5368,-29.5037,-26.2849,25.2124,
3.7546,15.556,-5.9007,12.3373,13.4109,-35.9402,-3.7546,1.6094,-8.0459,-1.6094,4.8282,-38.0864,-27.3575,24.1388,
17.1649,10.7284,7.5096,21.4563,11.801,-41.8415,-5.3645,-6.437,-22.5299,-7.5096,5.3645,-40.7679,-31.1126,17.1649,
29.5027,8.0459,22.5096,20.92,1.6094,-34.8677,-5.9007,2.682,-19.8484,-9.1195,-1.6094,-32.7225,-30.5763,19.8474,
14.5027,6.9738,25.2118,14.484,-0.53629,-39.1585,0.53629,8.0464,-9.119,-3.7551,-5.9002,-18.7743,-23.0657,19.8479,
1.6089,6.9728,20.9205,20.9205,0.53629,-50.96,-0.53629,4.8276,-15.5565,-0.53629,-4.8276,-10.1926,-23.0667,17.7017,
16.0928,8.5827,23.603,23.603,4.2914,-41.841,-5.3639,6.4375,-18.238,-4.2914,-8.5827,-12.8741,-34.3308,18.238,
20.3842,8.5827,22.5294,21.4568,17.1654,-26.841,-8.5827,10.7289,-25.7481,-13.9467,-17.1654,-19.3116,-42.9136,10.7289,
12.8746,7.5096,17.1659,19.3111,23.6025,-18.2385,-5.3644,13.9472,-36.4765,-16.0923,-13.9472,-16.0923,-41.8415,5.3644,
16.6296,-2.682,17.7022,12.3383,17.7022,-25.2113,2.682,5.9007,-31.6489,-16.6286,-4.8271,-15.556,-35.9402,11.2657,
23.0662,4.8282,17.7022,6.9733,13.4109,-37.0128,0.5368,-0.5368,-28.4301,-18.7748,-2.682,-15.556,-34.8677,16.6286,
26.8217,11.8015,6.4375,-7.5091,6.4375,-39.6948,0,10.7289,-30.0395,-9.6553,0,-10.7279,-33.2583,21.4568,
28.4301,6.9733,-2.682,-12.3383,2.682,-31.6489,13.4109,24.1388,-21.9936,2.682,-2.682,-5.9007,-23.0662,31.6489,
19.3111,5.3644,-2.1457,2.6617,2.1457,-34.3303,10.7284,18.2385,-22.5299,-5.3634,-9.6548,-5.3634,-24.675,30.04,
15.556,8.0459,1.6094,14.4835,-5.9007,-34.8677,9.1195,11.2647,-23.0662,-3.7546,-3.7546,-1.6094,-19.8474,27.3575,
5.9013,6.9738,-5.9002,10.1926,-20.9007,-27.357,8.0464,18.7753,-24.1393,3.7551,-3.7551,-5.9002,-23.0657,25.2118,
4.8276,11.2652,-3.7551,25.1926,-30.5758,-28.4306,1.6089,23.0657,-21.9931,-0.53629,0.53629,-10.1916,-31.6494,21.9931,
13.4109,9.1195,1.6094,25.2124,-25.2124,-43.4306,-1.6094,13.4109,-19.8474,-10.1921,3.7546,-10.1921,-29.5037,17.7022,
10.1921,10.1921,5.9007,18.7748,-30.5763,-53.1057,2.682,15.556,-21.9936,-4.8282,-2.682,-10.1921,-21.9936,24.1388,
-4.2914,5.3639,7.5101,17.1654,-40.7684,-52.5694,10.7289,16.0928,-16.0928,4.2914,-4.2914,-24.6756,-19.3116,27.8943,
-3.2183,4.2919,5.3645,6.437,-28.9664,-47.2044,6.437,12.8746,-10.7284,2.1457,-2.1457,-28.9664,-21.4563,21.4573,
4.2908,12.8736,3.2183,-4.2919,-20.3847,-35.4039,3.2183,18.2385,-13.9472,-1.0731,1.0731,-13.9664,-21.4573,26.8212,
0,6.4375,-1.0726,1.0736,-27.8933,-38.6222,11.8015,23.603,-18.238,0,1.0736,-6.4365,-19.3106,34.3319,
1.0726,3.2188,-2.1452,16.0736,-12.8933,-27.8943,13.9467,22.5294,-24.6756,-1.0726,-7.5101,2.1462,-21.4568,26.8207,
-1.0731,8.5822,-2.1457,17.1649,1.0731,-12.8943,9.6558,16.0923,-22.5299,-3.2183,-8.5832,9.6558,-20.3847,19.3111,
-2.1457,7.5096,-3.2183,19.3111,-9.6558,-16.0923,10.7284,21.4563,-17.1659,-2.1457,2.1457,7.5096,-21.4573,26.8212,
-1.0726,1.0726,-5.3639,18.238,-9.6553,-30.0395,9.6553,27.8943,-18.238,-5.3639,3.2188,4.2914,-26.8207,27.8943,
-4.8282,-1.6094,-2.682,11.2647,-12.3383,-25.2124,6.9733,19.8474,-8.0469,9.1185,1.6094,6.9733,-24.1398,25.2113,
-10.1926,-3.7551,0.53629,11.2642,-27.3383,-33.7946,0.53629,5.9002,-10.1926,18.7743,-0.53629,2.6815,-20.9205,27.357,
-2.1457,1.0731,6.437,22.5299,-22.5299,-43.9867,12.8736,18.2385,-13.9472,8.5822,-1.0731,-12.3185,-12.8746,31.1126,
3.7551,14.4829,8.0464,21.9931,-7.5299,-37.0133,14.4829,31.6484,-12.3378,-3.7551,-8.0464,-27.3185,-15.5566,26.2844,
1.6094,17.7012,11.2647,17.7012,-5.9007,-22.0133,3.7546,20.92,-12.3383,-1.6094,-5.9007,-18.7748,-23.0662,24.1388,
-4.8271,2.7012,2.682,10.1921,-16.6286,-26.2849,2.682,16.6296,-10.1921,3.7556,-2.682,-12.3373,-27.3575,20.921,
1.6094,11.2647,-3.7556,18.7748,-1.6286,-20.921,9.1185,31.6296,-6.9733,6.9733,-5.9007,-9.1195,-19.8484,25.2113,
1.6089,10.1916,-6.9738,12.3378,0.53629,-17.7017,4.8276,21.9931,-12.3378,-0.53629,-10.1916,-14.4829,-16.6291,23.0667,
0.53629,6.9738,0.53629,9.119,-14.4637,-30.5758,11.2652,15.5566,-9.119,-4.8276,-0.53629,-8.0464,-15.5565,24.1393,
-1.0731,9.6558,1.0731,12.8746,-24.675,-40.7679,7.5096,20.3837,-10.7284,-7.5096,-6.437,3.2183,-21.4573,21.4573,
-2.6825,18.7743,-2.6825,14.4829,-10.1916,-25.7679,6.9738,29.5032,-8.0464,1.6089,-1.6089,12.3378,-6.4573,31.6494,
-17.6825,10.1916,-17.6825,0.53629,-25.1916,-10.7679,-0.53629,21.9931,-14.484,2.6815,4.8276,1.6089,-4.8276,35.9397,
-18.2385,13.9472,-22.5299,5.3645,-40.1916,-13.9472,3.2183,24.675,-9.6558,7.5096,4.2908,-3.2183,-11.802,36.4765,
-8.5832,22.5299,-7.5299,15.0197,-40.7679,-8.5832,17.1649,36.4765,-10.7284,5.3645,-2.1457,-2.1457,-8.5832,32.1852,
-23.5832,11.801,5.3644,10.7284,-47.2054,-3.2183,9.6558,34.3314,-22.5299,1.0731,-1.0731,-4.2919,-7.5096,26.8212,
-32.7215,0.5368,-0.5368,17.7022,-59.5432,-18.2183,3.7546,30.5763,-9.1195,5.9007,6.9733,-3.7546,-10.1921,29.5027,
-24.1393,9.119,0.53629,16.6291,-53.1057,-17.7017,3.7551,33.7946,-4.8276,4.8276,-2.6815,-0.53629,-8.0464,31.6494,
-19.8484,12.3373,1.6094,1.6291,-52.0336,-2.7017,9.1185,35.9402,-13.4109,4.8271,-6.9733,-2.682,5.9007,33.794,
-20.921,5.9007,-1.6094,-8.0469,-56.3244,-2.682,11.2647,34.8677,-11.2647,6.9733,1.6094,-10.1921,6.9733,32.7215,
-13.4109,8.0459,-4.8282,6.9531,-52.0336,-15.5571,2.682,37.0128,-10.1921,2.682,6.9733,-9.1195,-2.682,32.7215,
-19.3116,-6.4375,-18.238,-3.2188,-63.2978,-30.5571,0,25.7481,3.2188,6.4375,21.4568,0,5.3639,33.2583,
-34.3116,-20.3837,-33.238,-18.2188,-78.2978,-39.6953,-2.1457,10.7481,10.7284,10.7284,26.8212,2.1457,8.5832,30.04,
-33.7946,-5.3837,-23.0667,-3.7551,-63.2978,-24.6953,2.6825,24.1393,0.53629,5.9002,17.7017,-0.53629,6.9738,34.8671,
-25.7486,9.6163,-9.6558,11.2449,-48.2978,-9.6953,7.5096,34.3314,-12.8746,2.1457,6.437,-3.2183,-2.1457,32.1852,
-27.8943,9.6553,-6.4375,15.0192,-33.2978,5.3047,0,24.6756,-12.8741,4.2914,0,-4.2914,-6.4375,22.5294,
-38.0859,-5.3447,-18.7753,0.53629,-26.2855,4.8276,-0.53629,20.9205,-2.6825,0.53629,3.7551,-8.0464,1.6089,24.1393,
-33.2583,-2.1452,-33.7753,-2.1452,-37.5496,-1.0726,6.4375,35.4045,1.0726,2.1462,13.9467,-5.3639,6.4375,32.1857,
-21.9936,2.682,-32.7215,-10.1921,-29.5037,4.8282,2.682,29.5037,-8.0459,0.5368,6.9733,-13.4109,-0.5368,19.8474,
-8.0459,6.9733,-17.7215,2.682,-14.5037,12.3373,2.682,15.556,-11.2647,-9.1195,1.6094,-11.2647,-1.6094,14.4835,
-2.1457,17.1659,-2.7215,17.682,-6.437,12.8746,-3.2183,26.8212,-23.6025,-21.4563,2.1457,-2.1457,-6.437,13.9472,
2.1457,19.3121,-2.1457,27.8948,-7.5096,18.2385,-3.2183,39.6953,-22.5289,-13.9461,9.6558,-8.5822,-8.5822,16.0934,
1.6094,13.4109,-12.3373,12.8948,-12.3373,20.92,-1.6094,26.2849,-18.7748,-9.1195,1.6094,-23.5822,-13.4109,20.92,
2.6825,18.7743,-0.53629,14.4829,-3.7551,18.7743,0.53629,32.722,-15.5565,-8.0464,-4.8276,-8.5822,-9.119,29.5032,
-7.5101,5.3639,9.6553,13.9467,-15.0203,11.8015,-4.2914,35.4034,-22.5304,-19.3116,-10.7289,4.2914,-19.3116,14.5032,
-2.1462,4.2914,9.6553,28.9467,-18.238,24.6756,-1.0726,33.2583,-18.238,-18.238,1.0726,-8.5827,-19.3116,13.9467,
1.6089,4.8276,-5.3447,29.5032,-12.3378,29.5032,-1.6089,32.722,-10.1916,-8.0464,9.119,-16.6291,-9.119,23.0667,
-1.6094,11.2647,-11.2647,14.5032,-15.556,30.5763,-9.1195,39.159,-6.9733,1.6094,5.9007,-1.6291,-4.8282,28.4301,
-1.6094,17.7022,-5.9007,11.2647,-23.0662,32.7215,-6.9733,33.7951,-10.1921,-0.5368,0.5368,1.6094,-17.7022,24.1388,
3.7551,6.9738,-13.4104,8.0464,-21.9931,17.7215,0.53629,24.1393,-17.7017,-5.9002,-0.53629,-13.3906,-24.1393,13.4104,
14.4829,8.0464,-16.6291,-0.53629,-6.9931,8.0464,-1.6089,27.358,-21.9931,0.53629,0.53629,-23.0657,-20.9205,15.5566,
20.92,12.3373,-12.3383,6.9733,1.6094,16.6286,-6.9733,21.9936,-19.8474,-2.682,-1.6094,-12.3383,-19.8474,20.92,
19.8479,5.9002,-10.1916,13.4104,-4.8276,14.4829,-5.9002,17.7017,-23.0657,-13.4104,4.8276,-14.4829,-16.6291,17.7017,
16.6291,4.8276,-2.6825,1.6089,-15.5565,-0.51706,-0.53629,27.357,-19.8479,-3.7551,17.7017,0.51705,-9.119,23.0657,
5.3645,4.2919,-3.2183,-13.3911,-24.675,-8.5822,-3.2183,28.9674,-4.8479,2.1457,12.8746,15.5171,-4.2908,26.8212,
3.7551,0.53629,-4.8276,-11.2642,-19.8479,3.7551,-8.0464,27.358,-0.53629,-4.8276,5.9013,12.3378,-0.53629,27.358,
0,-5.3639,-3.2188,-3.2188,-24.6756,2.1452,5.3639,31.1121,-2.1462,0,13.9467,-2.6622,3.2188,31.1121,
-12.8746,-3.2183,2.1457,-15.0197,-33.2588,-12.8548,12.8736,36.4765,4.2908,12.8736,20.3837,-2.1457,-2.1457,34.3303,
-16.0928,3.2188,1.0726,-17.1654,-26.8217,-7.5101,-1.0726,28.9669,-10.7092,2.1452,11.8015,4.2914,-17.1457,24.6756,
-12.3378,8.0464,-0.53629,-9.119,-15.5565,7.4899,6.9738,29.5032,-15.5565,0.53629,14.4829,-2.6825,-16.6291,26.2844,
-27.3378,5.3645,1.0731,-5.3644,-17.1659,6.437,10.7284,26.8212,-8.5832,-1.0731,8.5822,-7.5096,-18.2385,22.5299,
-34.3308,6.4375,16.0731,7.5101,-12.8741,-8.563,0,23.603,0,-4.2914,10.7289,-6.4365,-11.8005,17.1654,
-23.603,4.2914,16.0928,8.5827,-16.0928,-1.0726,-1.0726,27.8943,1.0726,-5.3639,19.3106,-10.7289,-1.0726,19.3106,
-29.5032,8.0464,1.0928,0.53629,-16.6291,8.0464,9.119,30.5758,-5.9013,-5.9013,10.1916,-5.9013,-3.7551,24.1382,
-39.1595,0.53629,0.53629,-0.53629,-16.6291,3.7551,8.0464,21.9931,-8.0464,-12.3378,5.9002,-5.9013,-14.484,14.4829,
-30.04,1.0731,7.5096,12.8736,-15.0197,5.3644,-1.0731,24.675,-2.1457,-7.5096,16.0923,-5.3645,-11.801,16.0923,
-42.9141,-1.0731,-3.2183,8.5822,-12.8746,1.0731,3.2183,31.1126,2.1457,-4.2919,10.7284,-3.2183,-7.5096,27.8938,
-54.1793,-3.7556,2.682,4.8271,-12.3383,-2.682,16.6286,34.8677,2.682,-4.8282,6.9733,-5.9007,-6.9733,29.5027,
-47.7422,3.7551,10.1916,5.9002,-27.3383,-3.7551,3.7551,31.6484,-6.9738,-8.0464,6.9728,-15.5566,-13.4104,18.7743,
-38.6227,7.5096,9.6558,5.3644,-28.9674,-4.2919,1.0731,23.6025,-1.0731,-2.1457,13.9472,-12.8746,-4.2919,25.7476,
-49.8869,-1.6094,2.682,-0.5368,-24.1388,-12.3373,2.682,14.4835,0.5368,1.6094,3.7546,-12.3373,-5.9007,29.5037,
-54.1782,-0.5368,1.6094,6.9733,-27.3575,-1.6094,0.5368,23.0662,3.7546,9.1195,-5.9007,-8.0459,-13.4109,23.0662,
-56.8607,1.0731,-1.0731,12.8736,-41.8415,10.7284,-1.0731,16.0923,7.5096,1.0731,-3.2183,-7.5096,-11.801,17.1649,
-55.7876,4.2914,-1.0726,15.0203,-42.9136,1.0726,-2.1452,3.2188,5.3639,-4.2914,3.2188,-7.5101,-12.8741,21.4568,
-43.4499,1.6099,0.53629,8.0464,-40.2311,-13.4104,-0.53629,-0.53629,8.0464,4.8276,4.8276,-6.9728,-15.5566,20.9205,
-30.5758,8.0464,-0.53629,4.8276,-25.2311,-3.7551,0.53629,-2.6825,8.0464,1.6089,5.9002,-2.6825,-14.4829,17.7017,
-34.8671,13.4104,-6.9728,15.5566,-10.2311,1.6099,-0.53629,6.9738,0.53629,-6.9728,12.3378,-2.6815,-12.3378,17.7017,
-42.9141,8.5822,-8.5832,19.3111,-15.0197,-6.437,2.1457,17.1649,1.0731,-2.1457,11.801,-1.0731,-7.5096,24.675,
-37.0133,5.9002,-0.53629,9.119,-26.2855,-1.6099,-1.6099,6.9728,-2.6825,0.53629,5.9002,4.8276,-12.3378,27.357,
-28.9669,8.5827,6.4365,0,-19.3116,1.0726,7.5091,-2.1462,-3.2188,0,10.7279,-5.365,-10.7289,30.0395,
-32.1852,15.0197,2.1457,-1.0731,-16.0923,-7.5096,11.801,2.1457,-2.1457,1.0731,2.1457,-15.0197,-3.2183,34.3314,
-26.2844,21.9931,-1.6089,11.2652,-16.6291,5.9002,1.6089,13.4104,-4.8276,2.6825,-4.8276,-9.119,-4.8276,31.6484,
-11.2844,20.3842,0,21.4568,-1.6291,18.238,0,17.1654,-3.2188,-3.2188,6.4365,0,-12.8741,23.6019,
-17.7017,19.8479,-0.53629,11.2652,-1.6089,10.1916,0.53629,5.9002,-11.2652,-9.119,4.8276,-0.53629,-18.7743,21.9931,
-31.6489,17.7012,2.682,-2.682,-16.6089,1.6094,9.1185,-1.6094,-6.9733,2.682,2.682,-10.1921,-14.4835,29.5027,
-31.6489,5.9007,2.682,4.8282,-31.6089,-4.8271,6.9733,4.8282,-3.7546,2.682,-2.682,-25.1921,-14.4835,27.3575,
-23.603,9.6553,4.2914,19.8282,-31.1131,-6.4375,0,9.6553,0,-4.2914,0,-27.8943,-16.0928,27.8933,
-11.2652,15.5565,2.6825,19.8479,-16.6291,-5.9002,6.9738,-3.7551,-0.53629,0.53629,5.9013,-12.8943,-17.7017,30.5758,
-3.7551,18.7753,8.0464,28.4306,-4.8276,9.0998,3.7551,-0.53629,-15.5363,0.53629,-6.9728,-5.9002,-26.2844,18.7753,
0.53629,26.2844,23.0464,43.4306,-4.8276,18.7753,-0.53629,14.4637,-20.9205,-10.1916,-12.3378,-0.53629,-29.5032,17.7017,
-8.0459,23.0662,23.0662,33.7951,-17.7022,6.9733,0.5368,4.8282,-11.2647,-13.4109,-1.6094,-0.5368,-27.3575,21.9936,
-23.0459,13.4104,8.0662,18.7951,-31.6494,8.0464,-6.9738,1.6089,-18.7753,-4.8276,2.6825,3.7551,-26.2844,23.0657,
-28.4306,4.8276,-6.9338,3.7951,-45.596,11.2652,-10.1916,13.4104,-15.5555,0.53629,5.9013,18.7551,-20.9205,24.1393,
-15.0197,7.5096,-5.3645,11.801,-37.5501,7.5096,-5.3645,11.801,-16.0923,-8.5832,5.3645,20.3837,-24.6761,20.3837,
-10.7279,12.8741,9.6355,25.7481,-22.5501,17.1654,-5.3639,5.3639,-27.8933,-18.238,-7.5101,5.3837,-37.5496,9.6553,
-6.9738,17.7017,24.6355,25.2118,-11.2652,27.358,-1.6089,11.2652,-16.6291,-3.238,-10.1916,1.6089,-29.5032,17.7017,
-0.53629,11.2652,27.358,10.2118,-11.2642,16.6291,2.6825,-3.7348,-10.1916,0.53629,-5.9002,-4.8276,-25.2118,21.9931,
-8.0469,3.7546,20.92,8.0459,-10.1921,14.4835,9.1185,-11.2647,-13.4109,-8.0469,1.6094,-1.6094,-21.9936,17.7012,
-22.5299,1.0731,12.8746,18.2385,-25.1921,13.9472,2.1457,-1.0731,-15.0197,-9.6558,-2.1457,2.1457,-24.675,15.0197,
-12.8741,2.1452,0,17.1654,-40.1921,8.5827,0,-1.0726,-6.4375,1.0726,-3.2188,1.0726,-25.7481,26.8207,
-0.53629,10.1916,4.8276,17.7017,-25.1921,13.4104,8.0464,-3.7551,-9.119,0.53629,-4.8276,-3.7551,-24.1393,16.6291,
0,18.239,19.8276,20.3842,-10.1921,16.0928,3.2188,-4.2914,-23.6019,-11.8005,-15.0192,-11.8005,-28.9669,1.6291,
2.1457,16.0934,28.9674,19.3111,-5.3634,12.8746,9.6558,-2.1457,-15.0197,-5.3634,-8.5822,-12.8736,-18.2385,15.0197,
0.53629,9.119,16.6291,16.6291,-8.0464,11.2652,13.4104,-0.53629,-8.0464,-3.7551,-1.6089,-6.9728,-15.5566,24.1393,
-4.8282,8.0459,4.8282,8.0459,-1.6094,15.556,5.9007,-2.682,-5.9007,-3.7546,-3.7546,1.6094,-21.9936,23.0662,
-3.7551,-0.53629,2.6815,0.53629,-10.1926,11.2642,6.9728,-2.6825,-3.7551,2.6815,1.6089,-3.7551,-17.7027,24.1382,
-0.53629,1.6099,-0.53629,12.3378,-10.1916,14.484,13.4104,-1.6089,-3.7551,0.53629,8.0464,-10.1916,-15.5565,20.9205,
-0.5368,13.4109,0.5368,19.8474,-1.6094,19.8474,13.4109,-2.682,-3.7546,-2.682,9.1195,-3.7546,-14.4835,20.92,
-0.53629,11.2652,4.8276,13.4104,0.53629,9.119,4.8276,-5.9002,-15.5555,-6.9728,-0.53629,-8.0464,-16.6291,23.0667,
2.1457,3.2193,6.437,16.0934,-2.1457,7.5106,8.5832,-2.1457,-18.2385,-3.2183,-5.3634,-11.801,-13.9461,23.6025,
-0.53629,-1.6089,3.7551,13.4104,-9.119,20.9205,14.4829,-3.7551,-9.119,0.53629,1.6089,-1.6089,-12.3378,23.0657,
-2.682,2.682,-3.7546,3.7546,-10.1921,24.1388,5.9007,-8.0459,-12.3373,-4.8282,6.9733,5.9007,-20.921,24.1388,
3.7551,9.119,-5.9002,3.7551,-4.8276,19.8479,6.9738,-3.7551,-9.119,-8.0464,5.9002,-3.7551,-15.5565,16.6291,
-1.0731,11.801,2.1457,10.7284,-9.6558,19.3111,7.5096,-5.3644,-1.0731,-2.1457,1.0731,-3.2183,-8.5822,20.3837,
-16.0731,3.2183,3.2183,6.437,-24.6558,4.3111,2.1457,-7.5096,-9.6558,-2.1457,-3.2183,6.437,-9.6558,32.1852,
-11.8015,-6.4375,-6.4375,0,-35.4045,-3.2188,16.0928,0,1.0726,2.1452,9.6553,1.0726,-6.4375,25.7481,
-5.3645,-3.2193,-15.0208,-2.1457,-27.8948,9.6548,13.9461,2.1457,6.437,2.1457,8.5822,-7.5106,-9.6558,10.7481,
-3.7551,9.119,-9.119,6.9738,-19.8479,24.6548,-0.53629,4.8276,-4.8276,0.53629,-0.53629,2.6825,-10.1916,20.9205,
1.6094,15.556,-2.682,21.9738,-18.7748,28.4301,-1.6094,2.682,-15.556,-3.7546,-6.9733,6.9733,-15.556,25.2124,
6.437,13.9472,5.3644,36.9738,-13.9472,20.3837,1.0731,-1.0731,-17.1649,-10.7284,-7.5096,-1.0731,-18.2385,11.801,
-1.6094,5.9007,8.0459,21.9738,-23.0662,5.3837,1.6094,-10.1921,-12.3383,-15.556,1.6094,-6.9733,-9.1195,13.4098,
-1.0726,5.3639,2.1452,6.9738,-27.8943,3.2188,1.0726,-10.7289,-7.5101,-4.2914,9.6553,-2.1462,-2.1462,27.8943,
8.0464,2.6825,-5.9002,16.6291,-12.8943,18.2188,-2.6825,0.53629,-14.4829,-5.9002,-0.53629,2.6825,-10.1916,16.6291,
8.0464,4.8276,-3.7551,26.2844,1.6089,32.722,-8.0464,0.53629,-29.4829,-20.9002,-15.5363,-0.53629,-23.0667,1.6291,
8.5827,10.7289,8.5827,22.5294,4.2914,28.9669,-10.7289,-4.2914,-39.6958,-24.6756,-23.603,-9.6553,-26.8207,9.6553,
14.484,5.9013,21.9941,11.2652,3.7551,14.484,-8.0464,-3.7551,-24.6958,-10.1916,-23.0657,-23.0657,-21.9931,17.7017,
11.2652,6.9738,14.484,8.0464,3.7551,13.4104,-10.1916,-3.7551,-17.7017,-17.7017,-26.2844,-24.1382,-24.1382,14.484,
2.1457,15.0197,2.1457,16.0923,-1.0731,26.8212,1.0731,-3.2183,-19.3111,-15.0197,-11.2844,-9.1382,-22.5299,16.0923,
0,6.4375,-5.3639,15.0203,-16.0731,21.4568,7.5101,0,-12.8741,-0.019747,-1.0726,-7.5101,-17.1654,22.5294,
4.8282,5.9007,-1.6094,13.4109,-18.7748,16.6286,-7.4899,1.6094,-9.1195,3.7546,-15.556,-6.9733,-18.7748,31.6489,
3.7551,10.1916,4.8276,12.3378,-24.1393,16.6291,-9.119,-5.9002,-1.6089,0.53629,-18.7753,-0.53629,-20.9205,24.1393,
-0.5368,5.9007,2.682,5.9007,-33.7951,13.4109,0.5368,-3.7546,-6.9733,1.6094,-10.1921,-9.1195,-23.0662,9.1393,
-2.1452,2.1462,0,2.1462,-41.841,13.9467,3.2188,2.1462,-9.6553,0,-9.6553,-22.5294,-20.3842,15.0203,
1.6089,3.7551,-2.6825,10.1916,-49.8874,17.7017,-4.8276,-1.6089,5.3447,3.7551,-13.4104,-8.0464,-14.484,28.4306,
4.8276,4.8276,-6.9738,17.7017,-41.3047,21.9931,-18.7753,2.6825,-0.53629,-1.6089,-12.3378,0.53629,-27.358,16.6291,
14.4829,6.9738,-1.6089,21.9931,-26.3047,26.2844,-4.8276,17.6825,-15.5363,-2.6825,1.6089,-6.9738,-26.2844,14.4829,
1.0726,0,-16.0928,6.9931,-41.3047,11.8015,2.1452,9.6553,-11.8015,-1.0726,0,-4.2914,-20.3842,21.4568,
0,-1.0726,-28.9669,-2.1452,-48.2775,10.7289,-3.2188,5.3639,0,4.2914,3.2188,10.7086,-21.4568,26.8207,
10.7284,-10.7284,-31.1126,2.1457,-33.2775,7.5096,-11.801,2.1457,-13.9472,-7.5096,-2.1457,3.2183,-36.4568,12.8736,
25.7284,1.0726,-16.1126,9.6553,-18.2775,1.0726,-1.0726,1.0726,-20.3842,-5.3639,-7.5101,-4.2914,-30.0395,13.9467,
28.9669,4.2914,-1.1126,1.0726,-3.2775,-10.7279,9.6553,-7.5101,-12.8741,0,-9.6553,0,-18.238,20.3842,
15.556,0.5368,-15.556,-4.8282,11.7225,-13.4109,14.4835,-0.5368,-1.6094,2.682,-3.7546,3.7546,-8.0469,29.5027,
3.2183,-11.801,-20.3837,-10.7284,25.7486,-28.4109,11.801,2.1457,1.0731,4.2919,-2.1457,-1.0731,-5.3644,22.5299,
2.1457,-19.3111,-5.3837,-16.0934,20.3837,-39.6953,10.7284,-2.1457,3.2183,3.2183,2.1457,-7.5096,-10.7284,11.801,
5.3645,-4.3111,-6.437,-12.8746,31.1126,-24.6953,7.5096,3.2183,-3.2183,-1.0731,3.2183,1.0731,-15.0197,21.4563,
-3.7546,5.9007,-21.437,-6.9733,32.7215,-9.6953,9.1195,1.6094,-5.9007,-1.6094,4.8282,3.7546,-10.1921,31.6489,
-5.9007,5.9007,-11.2647,8.0267,25.2113,-17.7022,14.4835,-0.5368,-4.8282,0.5368,5.9007,-5.9007,-9.1195,24.1388,
-1.6089,0.53629,3.7353,10.1916,17.7017,-25.2118,8.0464,0.53629,-11.2652,-0.53629,-0.53629,-9.119,-16.6291,13.4104,
-5.3645,-5.3645,5.3634,-2.1457,7.5096,-21.4573,10.7284,2.1457,-2.1457,6.437,3.2183,-5.3645,-11.802,17.1649,
-19.3116,-4.2914,3.2188,-3.2188,5.3639,-17.1654,13.9467,-1.0726,2.1452,7.5101,1.0726,-12.8741,-8.5827,16.0928,
-32.722,-5.9013,0.53629,0.53629,-0.53629,-29.5032,15.5566,-0.53629,2.6825,6.9738,5.9002,-13.4104,-6.9738,4.8276,
-37.5501,-4.2919,-6.437,1.0731,-3.2183,-31.1126,12.8736,2.1457,-1.0731,13.9472,10.7284,1.5896,-8.5832,3.2183,
-33.7951,0.5368,-0.5368,14.4835,11.7817,-16.1126,6.9733,-4.8282,-9.1195,8.0459,-0.5368,3.7546,-15.556,18.2183,
-30.0395,-3.2188,10.7279,15.0192,26.7817,-1.1126,10.7279,-11.8015,-8.5827,0,0,-6.4375,-19.3116,22.5294,
-34.3314,-6.437,7.5096,0.019236,27.8938,4.2919,5.3645,-8.5822,-8.5822,1.0731,8.5832,-9.6558,-21.4563,8.5832,
-39.1585,0.53629,-3.7551,0.53629,18.7753,-0.53629,2.6825,-0.53629,-2.6815,1.6099,10.1926,-8.0464,-13.4104,11.2652,
-40.2321,4.8276,-14.484,14.4829,8.0464,-0.53629,2.6815,-11.2652,-6.9738,0.53629,5.9002,-9.119,-14.484,15.5555,
-25.2321,8.0464,-5.9002,29.4829,11.2652,6.9738,5.9002,-8.0464,-18.7743,-0.53629,0.53629,-3.7551,-26.2844,8.0464,
-15.0197,1.0731,6.437,30.04,25.7486,15.0197,7.5096,-1.0731,-18.2385,-5.3645,-6.437,2.1457,-35.4039,-1.0731,
-20.92,0.5368,8.0469,21.9936,26.2849,15.556,1.6094,-8.0459,-17.7022,-12.3373,-9.1195,-0.5368,-38.0864,5.9007,
-15.0197,6.437,2.1457,11.801,17.1659,18.2385,6.437,-4.2919,-12.8746,-7.5096,-2.1457,-12.8746,-23.0864,18.2385,
-9.6553,1.0726,-5.3639,-1.0726,15.0192,20.3842,16.0928,7.5101,-11.8015,-5.3639,5.3639,-17.1654,-8.0864,11.8015,
-14.484,0.53629,-9.119,-0.53629,14.4829,18.7743,13.4104,10.1916,-20.9205,-10.1926,5.9002,-13.4104,-21.9941,1.6089,
-11.8015,3.2188,-7.5101,0,9.6553,19.3116,15.0192,4.2914,-20.3842,-6.4375,0,-22.5294,-28.9669,2.1452,
-3.2193,5.3634,7.4899,4.2908,-2.1457,20.3837,15.0197,2.1457,-8.5832,-5.3644,-11.802,-33.2588,-19.3121,3.2183,
-0.5368,5.9007,22.4899,11.2647,-11.2647,19.8474,15.556,0.5368,-1.6094,2.682,-8.0459,-18.2588,-19.8474,-1.6094,
1.0726,8.5827,28.9669,7.5101,-10.7279,24.6756,18.238,-3.2188,-4.2914,3.2188,-3.2188,-12.8741,-21.4568,-1.0726,
-2.1457,9.6558,24.675,5.3645,-7.5096,28.9664,13.9472,2.1457,-11.801,-6.437,-10.7284,-19.3111,-23.6025,7.5096,
-2.1457,12.8746,28.9674,20.3645,-8.5822,26.8212,17.1659,2.1457,-6.437,-5.3645,-8.5822,-16.0923,-21.4573,10.7284,
1.6094,15.556,25.2113,32.7215,-11.2647,25.2113,11.2647,-1.6094,-16.6296,-13.4109,-14.4835,-18.7748,-26.2849,5.9007,
4.8276,2.6815,10.2113,25.2118,-5.9013,30.5758,0.53629,-0.53629,-31.6296,-24.1393,-26.2844,-31.6494,-38.0859,1.6089,
11.8015,-1.0726,10.7289,27.8943,1.0726,41.841,6.4375,8.5827,-30.0395,-19.3106,-20.3842,-25.7481,-35.4034,-3.2188,
8.0464,12.3378,25.7289,34.8671,-4.8276,38.0859,9.119,4.8276,-25.2118,-15.5565,-20.9205,-23.0667,-37.0133,-6.9738,
1.6094,6.9733,23.0662,19.8671,-11.2647,29.5037,16.6296,-1.6094,-18.7748,-10.1921,-18.7748,-34.8677,-27.3575,1.6094,
3.7551,-4.8276,12.3378,4.8671,-9.119,35.9407,26.2844,5.9002,-3.7748,1.6089,-3.7748,-29.5032,-12.3575,12.3378,
0,-3.2178,16.0928,-8.5827,-11.8015,36.477,19.3116,5.365,-4.2914,3.2188,0,-14.5032,-20.3842,17.1654,
-2.6815,-0.53629,14.484,0.53629,-16.6291,31.6494,15.5566,-0.53629,0.53629,2.6825,-6.9728,-1.6089,-27.357,21.9931,
-3.7551,-0.53629,0.53629,4.8276,-28.4306,30.5758,14.4829,2.6815,-1.6099,1.6089,-5.9013,-8.0464,-18.7753,16.6291,
-8.0464,0.53629,9.119,8.0464,-28.4306,37.0133,14.484,9.119,-8.0464,-2.6815,-0.53629,-11.2642,-15.5566,12.3378,
-16.6291,2.6825,24.119,17.7017,-13.4306,52.0133,4.8276,2.6825,-14.4829,-2.6825,-13.4104,-5.9002,-30.5566,8.0464,
-10.7289,9.6553,35.4034,32.7017,-5.3639,64.3703,3.2188,1.0726,-10.7289,1.0726,-20.3842,-6.4375,-33.2583,-1.0726,
-9.1195,8.0459,27.3575,40.2316,-20.3639,49.3703,4.8282,10.1921,-12.3373,-4.8282,-21.9936,-17.7022,-32.7215,5.9007,
-11.2647,16.6286,31.6489,50.9605,-13.4109,56.3244,5.9007,24.1388,-16.6286,-5.9007,-18.7748,-13.4109,-37.0128,20.9007,
-16.0928,16.0928,27.8943,49.3511,-3.2188,66.5165,3.2188,16.0928,-12.8741,-9.6553,-17.1654,-10.7279,-39.6948,9.6553,
-15.556,12.3383,25.2124,35.9402,-18.2188,55.2519,4.8282,2.682,-9.1185,-2.682,-16.6286,-8.0459,-32.7215,10.1921,
-15.0192,6.4375,21.4568,32.1857,-33.2188,51.4963,-1.0726,6.4375,-12.8741,1.0726,-17.1654,-9.6553,-35.4034,20.3842,
-15.0203,7.5101,18.238,38.6222,-26.8217,66.4963,3.2188,15.0192,-5.3639,-3.2188,-7.5101,-9.6553,-35.4045,18.238,
-8.0464,14.4829,19.8479,32.722,-23.0657,72.4168,5.9002,6.9738,-5.9002,-6.9738,-8.0464,-6.9738,-30.5758,15.5566,
2.682,9.1185,10.1921,20.92,-28.4311,57.4168,8.0459,-2.682,-2.682,-2.682,-8.0469,-10.1921,-23.0662,19.8474,
0.53629,0.53629,-0.53629,15.5565,-33.7946,42.4168,9.119,-1.6089,-0.53629,1.6089,-1.6089,-3.7551,-26.2844,20.9205,
-9.1195,2.682,2.682,18.7748,-33.7951,43.4504,4.8271,-5.9007,-14.4835,-1.6094,-8.0469,1.6094,-37.0138,13.4098,
-1.6094,4.8282,6.9733,17.7022,-30.5763,47.7417,4.8282,-5.9007,-16.6286,1.6094,-17.7012,-13.3906,-28.4301,14.4835,
3.2183,11.801,-4.2908,9.6558,-30.04,42.9141,3.2183,1.0731,-11.801,-1.0731,-21.4573,-28.3906,-23.6025,22.5299,
2.1457,18.2385,1.0731,12.8746,-34.3314,48.278,7.5096,-2.1457,-3.2183,-1.0731,-9.6558,-13.3906,-25.7486,26.8212,
-2.6825,4.8276,6.9738,16.6291,-44.5235,46.6686,9.119,-10.1916,-3.7551,1.6089,-8.0464,-1.6089,-30.5758,16.6291,
0,2.1452,-1.0726,15.0192,-39.6958,38.6222,8.5827,0,-9.6553,9.6553,-12.8741,-3.2188,-27.8943,21.4568,
-4.2919,5.3644,-4.2919,2.1457,-46.1328,24.675,15.0197,1.0731,-5.3645,21.4563,-5.3645,-1.0731,-19.3111,28.9664,
-11.2652,-0.53629,9.119,0.53629,-54.1788,18.7743,12.3378,-4.8276,-1.6089,11.2652,-1.6089,2.6825,-23.0667,16.6291,
-2.6825,-1.6099,19.8469,15.5363,-48.8148,20.9205,10.1916,-0.53629,1.6089,-3.7348,-6.9738,0.53629,-27.358,13.4104,
-3.7546,-5.9007,4.8469,12.3373,-56.3244,16.6286,14.4835,-5.9007,3.7546,0.5368,-0.5368,-3.7546,-24.1388,21.9936,
-18.7546,-5.9007,-10.1531,3.7556,-67.0528,8.0469,4.8282,1.6094,-2.682,15.5368,12.3383,-1.6094,-20.92,24.1388,
-33.7546,1.6094,-5.9007,10.1921,-58.4701,17.7022,-1.6094,16.6094,-4.8271,17.7022,4.8282,-1.6094,-17.7022,23.0662,
-18.7546,14.484,-0.53629,23.0667,-43.4701,32.7022,8.0464,11.2652,-4.8276,2.7022,-9.119,-1.6089,-15.5555,26.2855,
-3.7546,9.6558,-1.0731,20.3837,-28.4701,34.3314,11.801,1.0731,-9.6558,-3.2183,-13.9472,2.1457,-15.0197,24.6761,
-18.7546,-0.53629,2.6815,11.2642,-38.0859,21.9931,2.6815,2.6815,-9.119,-2.6825,-12.3378,0.53629,-17.7017,19.8469,
-33.7546,8.0464,4.8276,9.119,-28.4306,30.5758,3.7551,5.9002,-3.7551,-8.0464,-4.8276,-4.8276,-15.5565,23.0657,
-31.1131,1.0726,-1.0726,-5.3639,-13.4306,33.2583,18.238,-2.1462,1.0726,-2.1462,10.1724,0,-7.5101,24.6756,
-23.0667,-5.9013,-3.7551,-8.0464,1.5694,31.6484,18.7743,-4.8276,0.53629,8.0464,13.4104,-0.53629,-6.9738,26.2844,
-10.7284,-1.0731,1.0731,4.2908,3.2183,36.4765,3.7743,3.2183,-10.7284,-3.2183,-1.5896,-5.3645,-15.0197,22.5299,
-5.3644,2.1457,10.7284,9.6558,-1.0731,39.6953,-5.3644,8.5832,-19.3111,-10.7284,-11.801,1.0731,-19.3111,11.802,
-6.9733,1.6094,9.1185,5.9007,-14.4835,28.4301,-1.6094,1.6094,-17.7022,1.6094,-4.8282,-1.6094,-15.556,15.556,
-8.0459,-9.1195,-1.6094,-9.0993,-16.6296,13.4301,12.3373,-6.9733,-2.7022,16.6094,9.1195,-5.9007,-0.55604,30.556,
-7.5096,-15.0197,-7.5096,-18.2385,-10.7284,3.2183,11.801,-2.1457,10.7284,19.3111,13.9472,1.0731,-1.0731,31.1126,
-8.5827,-5.3639,-3.2178,-3.2385,-21.4568,17.1654,0,0,-4.2716,7.5101,6.4375,3.2188,-16.0731,23.603,
0.53629,5.9002,-1.6089,11.7615,-23.0667,31.6494,1.6089,-5.9002,-13.4104,2.6825,-0.53629,-9.119,-19.8479,20.9205,
10.7279,4.2914,-13.9477,7.5091,-8.0667,32.1847,0,-2.1462,-20.3842,0,-15.5363,-16.0928,-20.3842,13.9467,
13.9472,-1.0731,-17.1649,1.0731,6.9333,35.4039,3.2183,4.2919,-22.5299,-8.5822,-24.675,-11.801,-23.6025,9.6558,
19.8479,6.9738,-4.8276,4.8276,21.9333,32.722,10.1926,-6.9728,-15.5555,-9.119,-13.4104,-10.1916,-16.6291,8.0464,
24.6756,9.6553,-7.5101,7.5101,26.8207,25.7481,5.3639,-10.7289,-19.3116,-5.3639,-18.238,-17.1654,-23.603,5.3639,
24.6756,0,-12.8741,6.4365,15.0192,33.2583,4.2914,0,-20.3842,-1.0736,-26.8217,-17.1654,-37.5496,5.3639,
22.5304,0,-4.2914,0,15.0203,34.3309,0,2.1462,-16.0928,-2.1452,-18.238,-10.7279,-32.1857,8.5827,
31.1121,5.3639,-4.2914,-3.2188,19.3106,24.6756,3.2178,-3.2188,-2.1462,0,-3.238,0,-17.1857,12.8741,
30.0395,1.0726,-17.1654,-10.7289,6.4365,19.3116,3.2188,-7.5101,-2.1462,-1.0726,-3.2188,3.2188,-15.0203,16.0928,
34.8682,-1.6089,-5.9002,-10.1916,-0.53629,30.5768,10.1926,0.53629,-3.7551,10.1926,-3.7551,12.3378,-11.2642,31.0928,
34.8682,-15.5565,0.53629,-13.4104,-3.7551,15.5768,14.484,-1.6089,0.53629,13.4104,-5.9002,-0.53629,-9.119,28.4306,
30.5763,-9.1185,-8.0459,-4.8271,3.7556,1.6094,10.1921,2.682,-1.6094,6.9733,-14.4835,-10.1921,-15.556,21.9936,
23.603,-1.0726,-22.5304,-3.2188,-5.3639,11.8015,3.2188,5.3639,-7.5101,9.6553,-8.5827,1.0726,-13.9467,23.603,
19.8474,-9.1195,-33.7951,-11.2647,-20.3639,10.1921,0.5368,-0.5368,-8.0459,17.7022,5.9007,6.9733,-8.0459,20.92,
25.2113,-2.682,-21.9936,-5.9007,-15.556,11.2647,1.6094,-0.5368,-9.1195,11.2647,1.6094,0.5368,-13.4109,19.8474,
26.8212,-1.0731,-9.6558,3.2183,-8.5832,18.2385,2.1457,1.0731,-6.437,7.5096,-10.7284,-9.6558,-22.5299,21.4563,
24.1393,0.53629,-12.3378,3.7551,-1.6099,18.7743,1.6089,-0.53629,-5.9013,5.9002,-10.1926,-5.9013,-19.8479,19.8479,
22.5294,1.0726,-17.1654,4.2914,0,6.4365,3.2188,0,-11.8015,-5.3639,-9.6553,-15.0203,-19.3116,10.7279,
25.7481,1.0726,-10.7289,15.0192,-1.0726,12.8741,7.5101,8.5827,-7.5101,-4.2914,-3.2188,-8.5827,-20.3842,13.9467,
17.7022,-2.682,-18.7748,11.2647,4.8282,23.0662,-3.7546,-1.6094,-12.3373,1.6094,-3.7546,6.4173,-25.2113,15.556,
15.5565,-8.0464,-15.5565,-0.53629,5.9002,14.4829,1.6089,-12.3378,-15.5565,0.53629,-6.9738,12.3378,-18.7753,15.5565,
20.921,-9.1195,-0.55655,4.8282,1.6094,10.1921,13.4109,-1.6094,-12.3373,-8.0459,-9.1195,-2.6622,-14.4835,18.7748,
6.9733,-11.2647,1.6094,9.1185,3.7546,13.4098,4.8271,-1.6094,-9.1195,-6.9733,-13.4109,-14.4835,-24.1388,13.4098,
-0.53629,-8.0464,-5.9013,13.4104,13.4104,20.9205,5.9002,-8.0464,-0.53629,0.53629,1.5891,-2.6825,-11.2652,19.8469,
-4.2914,-11.8005,-9.6553,15.0203,13.9477,18.239,6.4375,0,-4.2914,-11.8005,3.2188,0,-3.2178,24.6756,
-3.2183,-8.5822,-2.1457,10.7284,22.5299,26.8212,2.1457,3.2183,-13.9472,-11.801,-9.6558,4.2919,-17.1649,9.6756,
-11.8015,0,2.1452,9.6553,19.3106,32.1847,0,-6.4375,-20.3842,0,-13.9477,9.6553,-27.8943,3.2178,
-26.8015,0.53629,-0.53629,18.7753,4.3106,17.1847,8.0464,-5.9002,-5.3842,5.9013,-3.7551,10.1926,-15.5555,18.2178,
-29.5032,3.7551,-10.1916,17.7017,-10.6894,18.7753,12.3378,0.53629,9.119,-0.53629,-0.53629,-3.7551,-6.9728,25.2118,
-16.0923,15.0197,-11.801,12.8746,-23.6025,33.7753,2.1457,5.3644,-2.1457,2.1457,-2.1457,-11.801,-18.2375,19.3111,
-25.2113,9.1195,-11.2647,9.1195,-38.6025,48.7753,-5.9007,8.0469,-4.8271,5.9007,-1.6094,1.6094,-29.5027,17.7022,
-30.04,6.437,-8.5822,13.9472,-53.6025,63.7753,-8.5822,17.1659,-2.1457,2.1457,-7.5096,13.9472,-27.8938,12.8746,
-19.8479,13.4104,2.6815,17.7017,-68.6025,78.7753,-14.484,12.3378,-16.6291,1.6089,-18.7753,0.53629,-34.8671,-0.53629,
-19.3116,19.3116,13.9467,20.3842,-83.6025,93.7753,-10.7289,7.5101,-16.0928,6.4375,-12.8741,-1.0726,-39.6958,1.0726,
-25.7481,25.7481,6.4375,24.6756,-90.119,108.7753,-15.0203,11.8015,-10.7289,-6.4375,-8.5827,12.8741,-39.6958,6.4375,
-10.7481,32.1852,-5.3645,30.04,-80.4632,123.7753,-5.3645,20.3847,-2.1457,-1.0731,1.0731,19.3111,-24.6958,16.0934,
-17.7022,17.1852,-20.3645,16.6296,-95.4632,138.7753,-2.682,11.2647,-12.3373,2.682,-12.3373,10.1921,-20.92,14.4835,
-20.9205,9.119,-15.5565,10.1916,-94.9472,132.4958,-4.8276,14.4829,-11.2652,4.8276,-13.4104,20.9205,-24.1393,18.7743,
-19.8479,5.9002,-11.2652,10.1916,-97.0923,131.4232,-3.7551,16.6291,-1.6089,0.53629,-0.53629,11.2652,-29.5032,17.7017,
-13.4104,13.4104,-9.119,21.9931,-97.0928,132.4958,-0.53629,13.4104,-3.7551,-6.9738,0.53629,3.7551,-27.358,16.6291,
-13.4104,21.9931,0.53629,24.1393,-92.8015,124.9866,-0.53629,15.5555,-4.8276,-0.53629,-5.9013,17.7017,-15.5566,18.7743,
-28.4104,10.1921,-5.9007,12.3373,-107.8015,119.6222,-11.2647,15.556,-6.9733,5.9007,-9.1195,16.6286,-19.8474,10.1921,
-43.4104,3.2188,-5.3639,17.1654,-122.8015,115.8676,-15.0192,15.0203,-3.2188,5.3639,-5.3639,16.0928,-33.2583,9.6553,
-38.6222,1.0736,0,17.1664,-133.0326,105.1398,-11.8005,7.5101,-5.3639,0,-5.3639,10.7289,-36.476,10.7289,
-37.0128,6.9733,0.5368,13.4109,-118.5496,112.1121,-11.2647,10.1921,-13.4109,-0.5368,-10.1921,1.6094,-34.8677,11.2647,
-46.1323,9.6553,-1.0726,12.8741,-110.5027,119.0864,-9.6553,13.9477,-9.6553,1.0726,-9.6553,1.0726,-37.5496,11.8015,
-52.5694,6.437,-7.5096,18.2385,-120.1585,104.0864,-12.8736,2.1457,-1.0731,1.0731,-4.2908,2.1457,-34.3314,13.9472,
-48.8143,6.9733,-6.9733,30.5763,-107.8207,97.0928,-16.6286,1.6094,-1.6094,11.2647,-3.7546,6.9733,-31.6489,17.7022,
-45.0598,-1.0726,3.2188,25.7481,-96.556,98.7022,-21.4568,1.0726,-12.8741,12.8741,-10.7279,12.8741,-37.5496,5.3639,
-35.9397,4.8287,8.0464,16.6291,-104.6019,100.3111,-24.1382,0.53629,-16.6291,3.7551,-11.2642,11.2652,-43.4499,-0.53629,
-30.5768,19.8287,-0.53629,25.2118,-104.603,106.7476,-9.1382,15.5363,-1.6291,2.6815,-2.6825,-1.6099,-31.6494,14.4637,
-45.0587,8.5827,-9.6553,16.0928,-106.2113,97.6296,0,3.2188,0,1.0736,-15.0192,-16.6099,-28.9669,29.4637,
-30.5763,9.1195,5.3447,23.0662,-93.8741,102.4568,-5.9007,1.6094,-4.8282,12.3373,-13.4109,-1.6099,-30.5763,30.5763,
-23.6019,-1.0726,6.4375,23.603,-91.1916,102.9936,-18.238,5.365,-8.5827,1.0726,-15.0192,7.5101,-43.9861,15.5763,
-21.9931,-0.53629,5.9002,16.6291,-77.7817,102.4563,-11.2652,5.9002,-4.8276,0.53629,-18.7753,3.7551,-41.3047,18.7743,
-21.9936,4.8282,14.4835,6.9733,-75.6355,87.4563,-2.682,2.682,-9.1195,9.1195,-18.7748,-11.2449,-33.7951,21.9936,
-28.9674,13.9461,26.8212,21.4563,-77.2454,87.9728,2.1457,6.437,-2.1457,9.6548,-15.0197,-15.0197,-24.6761,6.9936,
-34.8671,17.7017,26.2844,36.4563,-75.6355,102.9728,-4.8276,12.3378,1.6089,12.3378,-10.1916,-1.6089,-20.9205,-8.0064,
-40.7679,6.437,11.801,27.8938,-78.318,87.9728,-16.0923,7.5096,-6.437,18.2385,-7.5096,10.7284,-22.5299,-23.0064,
-46.6681,8.0469,15.556,14.4835,-76.7081,85.2913,-14.4835,5.9007,-5.9007,18.7748,-10.1921,14.4835,-21.9926,-38.0064,
-38.6222,12.8741,23.603,13.9467,-67.5896,90.1185,-9.6553,5.3639,-1.0726,16.0928,-13.9467,1.0726,-26.8217,-53.0064,
-23.6222,10.1921,21.9936,23.0662,-57.397,76.7086,-2.682,8.0459,1.6094,19.8474,-1.6094,-4.8282,-26.2849,-68.0064,
-27.358,13.4104,16.6291,32.722,-65.9802,61.7086,-0.53629,11.2652,-4.8276,8.0464,0.53629,-2.6825,-27.358,-83.0064,
-36.4765,16.0923,13.9472,25.7486,-72.9536,56.8607,3.2183,9.6558,1.0731,-1.0731,-4.2919,-2.1457,-24.6761,-98.0064,
-34.3308,3.2188,1.0726,10.7486,-75.0992,59.0064,-5.3639,4.2914,3.2188,6.4365,-3.2188,-1.0726,-27.8943,-113.0064,
-26.2844,0.53629,-9.119,4.8276,-79.9269,55.2513,-17.7017,6.9738,3.7551,9.119,0.53629,-0.53629,-28.4306,-128.0064,
-15.0197,7.5096,-2.1457,6.437,-75.0998,56.8607,-8.5832,12.8736,11.801,2.1457,7.5096,-8.5832,-23.6035,-143.0064,
-5.9002,13.4104,1.6099,9.119,-60.0998,61.6889,-2.6815,17.7027,1.6099,-0.53629,0.53629,-2.6815,-28.4306,-158.0064,
-15.5565,12.3378,-4.8276,10.1916,-56.3239,61.6889,1.6089,13.4104,-1.6089,2.6825,-8.0464,12.3185,-24.1393,-173.0064,
-30.5565,4.8276,-1.6099,0.53629,-63.8346,61.6879,-0.53629,11.2642,12.3378,13.4104,-4.8276,27.3185,-12.3378,-180.7748,
-27.3575,-0.5368,0.5368,6.9733,-56.3244,59.5432,-5.9007,15.556,12.3373,18.7748,-2.682,31.6489,-19.8474,-167.9002,
-19.3106,1.0726,-10.7279,15.0203,-51.4963,50.4237,-1.0726,10.7289,4.2914,12.8741,-3.2188,22.5304,-26.8207,-174.8735,
-17.1649,9.6558,-12.8736,2.1457,-59.0059,43.9867,-2.1457,8.5832,5.3644,8.5832,-4.2908,20.3847,-22.5299,-168.4365,
-12.3378,11.2642,-3.7551,0.53629,-54.1788,52.0326,-4.8276,15.5555,10.1916,19.8469,-0.53629,26.2844,-17.7017,-153.4365,
-10.7279,4.2914,-4.2914,13.9477,-49.3501,56.8612,-5.3639,16.0928,7.5101,15.0203,-6.4365,25.7492,-22.5294,-139.4696,
-16.6296,5.9007,-5.9007,6.9733,-43.4504,53.1057,-2.682,12.3373,5.9007,2.682,-11.2647,24.1388,-15.556,-129.278,
-16.0928,7.5101,-5.3639,-5.3639,-40.7674,43.9872,4.2914,20.3842,15.0203,17.682,-4.2914,19.3116,-6.4365,-114.794,
-12.8746,2.1457,-8.5832,6.437,-55.7674,32.1852,-2.1457,22.5299,8.5822,24.675,-2.1457,12.8736,-17.1659,-111.5763,
-9.119,4.8276,-0.53629,19.8469,-65.9802,38.0859,-0.53629,16.6291,0.53629,9.675,-3.7551,16.6291,-13.4104,-112.1126,
-4.8276,3.7551,0.53629,10.1916,-50.9802,49.8874,2.6815,23.0657,-0.53629,-2.6825,-12.3378,18.7743,-4.8276,-111.04,
-2.1452,0,-5.3639,0,-35.9802,50.4237,0,26.8217,-5.3639,1.0726,-17.1654,17.1654,-16.0928,-100.8474,
-6.9738,-3.7551,3.7551,-6.9738,-20.9802,41.3047,11.2642,18.7743,3.7551,10.1916,-5.9013,18.7743,-14.484,-85.8474,
-20.3842,-3.2188,0,-7.5101,-23.603,37.5496,16.0928,16.0928,13.9467,12.8741,0,11.8015,-6.4375,-75.0992,
-33.2588,-12.8746,-15,2.1457,-30.04,30.039,7.5096,16.0923,15.0197,13.9472,1.0731,-1.0731,-10.7284,-77.2449,
-20.92,-12.3373,-25.2113,13.4109,-39.159,23.0662,5.9007,8.0469,9.1195,13.4109,-1.6094,1.6094,-17.7022,-77.7812,
-5.92,2.6627,-12.8741,19.3116,-24.159,38.0662,0,1.0726,0,7.5101,-9.6553,16.6094,-25.7481,-70.8079,
-17.7017,4.8276,-13.4104,20.9205,-17.7017,53.0662,-4.8276,5.9002,6.9738,14.4829,-12.3378,25.2118,-25.2118,-63.8341,
-32.7017,-1.6094,-19.8474,13.4109,-32.7017,40.2316,2.682,1.6094,9.1195,21.9936,-9.1185,10.2118,-18.7748,-58.4701,
-24.6761,1.0731,-20.3847,-1.5891,-38.6227,30.039,11.801,-1.0731,17.1649,18.2385,3.2183,4.2908,-8.5832,-56.8612,
-19.3116,-4.2914,-11.8015,-16.5891,-23.6227,26.8207,8.5827,5.3639,24.6756,12.8741,5.3639,4.2914,-6.4375,-57.9338,
-17.1659,-3.2183,-7.5096,-6.437,-8.6227,27.8938,4.2908,7.5096,18.2385,15.0197,3.2183,9.6558,-5.3645,-45.0592,
-16.0928,-2.1452,-19.3116,0,-4.2914,26.8207,5.3639,-4.2914,16.0928,15.0203,7.5101,16.0928,0,-37.5496,
-17.7022,-1.6094,-24.1388,0.5368,-13.4109,19.8474,5.9007,-5.9007,17.7022,18.7748,8.0459,13.4109,-0.5368,-32.7215,
-12.8746,-1.0731,-12.8746,5.3645,-23.6025,15.0197,7.5096,-1.0731,20.3837,27.8938,1.0731,11.801,-5.3645,-27.8938,
-8.5832,-1.0731,-7.5096,3.2183,-30.04,11.801,12.8746,-4.2919,24.675,25.7486,1.0731,10.7284,-5.3644,-24.675,
-13.9472,1.0731,-21.4573,-1.0731,-35.4039,7.5096,9.6558,-3.2183,22.5299,16.0923,4.2919,16.0923,-4.2919,-23.6025,
-11.8015,-4.2914,-24.6756,-5.3639,-33.2583,4.2914,11.8015,1.0726,24.6756,20.3842,11.8015,30.0395,-1.0726,-20.3842,
-2.1457,-9.6558,-19.3121,-3.2193,-35.4039,5.3634,5.3634,2.1457,20.3837,23.6025,7.5096,32.1852,-6.437,-18.2385,
0.53629,0.53629,-11.2642,11.2652,-33.7946,8.0464,-9.6366,-4.8276,5.9013,13.4104,-0.53629,26.2855,-8.0464,-10.1916,
-14.4637,3.2178,3.2178,15.0192,-22.5304,13.9467,-9.6563,-12.8741,0,11.8005,0,19.3106,-3.2188,-8.5827,
-29.4637,0.53629,-0.53629,4.8276,-16.6291,20.9205,5.3437,-1.6089,5.9002,21.9931,-4.8276,18.7743,-1.6089,-8.0464,
-34.8677,-4.8282,-15.5363,-10.1724,-15.556,17.7022,17.7022,1.6094,9.1195,16.6296,-8.0459,13.4109,2.682,-1.6094,
-30.5758,0.53629,-13.4104,-5.9002,-1.6089,19.8479,10.1916,-3.7551,3.7551,6.9738,-4.8276,3.7551,0.53629,-0.53629,
-30.5763,4.8282,-2.682,9.0998,12.3373,24.1388,2.682,-6.9733,-6.9733,13.4109,-3.7546,2.682,-14.4637,-6.9733,
-26.2855,-4.8276,-6.9738,24.0998,13.4104,20.9205,3.7551,-9.119,-3.7551,5.9002,3.7551,5.9002,-23.0667,-10.1926,
-11.2855,4.2914,-1.0726,28.9669,18.238,24.6756,3.2188,-6.4375,-1.0726,-9.0998,3.2188,1.0726,-16.0928,-6.4375,
-12.8736,12.8746,8.5832,27.8938,3.238,24.675,8.5832,-4.2908,-1.0731,-4.2908,-5.3644,-6.437,-15.0197,1.0731,
-24.1393,1.6089,-1.6099,27.357,-11.762,24.1382,-0.53629,-4.8276,3.7551,10.7092,-0.53629,0.53629,-14.484,6.9728,
-18.238,-5.3639,-11.8015,24.6756,3.238,26.8207,-15.5363,-7.5101,3.2188,-1.0726,1.0726,8.5827,-22.5294,7.5101,
-9.119,0.53629,-11.2652,11.2642,18.238,25.2118,-0.53629,-14.484,0.53629,-4.8276,-6.9738,6.9728,-20.9205,14.4829,
-20.3837,-3.2183,-12.8736,3.2183,32.1852,20.3837,3.2183,-22.5299,-6.437,7.5096,-12.8736,11.801,-15.0197,21.4573,
-23.6025,-10.7284,-5.3644,9.6558,17.1852,19.3111,-3.2183,-12.8736,2.1457,6.437,-2.1457,21.4573,-15.0197,27.8938,
-24.1393,-11.2652,-14.4829,6.9738,2.1852,9.119,-0.53629,-11.2652,4.8276,1.6089,-4.8276,12.3378,-23.0667,18.7743,
-30.5763,-9.1195,-29.4829,-1.6094,4.8271,12.3373,2.682,-12.3383,2.682,15.556,-8.0469,1.6094,-15.5571,13.4098,
-15.5763,-12.8746,-32.1852,-7.5096,13.9472,15.0197,1.0731,-18.2385,7.5096,23.6025,2.1457,-1.0731,-8.5822,19.3111,
-0.5763,-10.7284,-17.1852,-12.8736,5.3645,3.2183,-4.2908,-25.7486,1.0731,11.801,3.2183,-1.0731,-17.1659,21.4573,
-5.3639,-13.9467,-2.1852,-15.0192,2.1462,7.5101,0,-20.3842,1.0736,16.0928,-5.3639,4.2914,-15.0192,18.239,
-8.0464,-24.1393,-11.2652,-6.9738,11.2652,12.3378,3.7551,-25.2118,10.1916,21.9931,-3.7551,11.2652,-11.2652,18.7743,
-0.53629,-15.5565,-8.0464,-2.6825,8.0464,0.53629,-1.6089,-32.722,2.6825,6.9931,0.53629,12.3378,-20.9205,17.7017,
-4.8276,-1.6089,-4.8276,-2.6815,5.9013,3.7551,8.0464,-18.7743,5.9013,0.53629,-0.53629,9.119,-15.5555,23.0667,
-19.8276,-8.0464,-19.8276,-4.8276,8.0464,12.3378,4.8276,-8.0464,6.9738,4.8276,-11.2652,5.9002,-15.5565,25.2118,
-34.3319,-16.0928,-30.0405,-6.4375,5.3639,7.5091,0,-7.5101,8.5827,9.6553,0,19.3106,-8.5827,28.9669,
-33.2583,-24.6756,-20.3842,-16.0928,-8.5827,1.0726,2.1462,-12.8741,12.8741,11.8015,10.7289,18.238,-1.0726,31.1131,
-41.3042,-20.921,-11.2647,-8.0469,-8.0469,5.9007,9.1195,-10.1921,15.556,16.6286,11.2647,5.9007,-5.9007,38.0864,
-47.7417,-15.556,-17.7022,-0.5368,-1.6094,2.682,11.2647,-15.556,14.4835,17.7022,13.4109,0.5368,-10.1921,33.794,
-40.2321,-15.5565,-29.5032,-6.9738,-1.6089,1.6089,4.8276,-24.1393,10.1916,17.7017,4.8276,2.6825,-10.1916,28.4306,
-32.1852,-12.8746,-18.2385,-7.5096,-3.2183,6.437,3.2183,-20.3837,9.6558,21.4573,3.2183,12.8746,-4.2908,33.2588,
-36.4765,-15.0197,-3.2385,-6.437,-5.3644,1.0731,2.1457,-20.3837,5.3645,15.0197,3.2183,15.0197,-10.7284,26.8212,
-34.3308,-11.8015,5.3639,6.4365,3.2188,0,0,-17.1654,-1.0726,9.6553,-3.2188,9.6553,-18.239,26.8207,
-38.6227,-23.6035,6.437,10.7284,-4.2919,-2.1457,5.3634,-19.3121,2.1457,20.3837,-7.5106,5.3634,-9.6558,28.9664,
-42.3773,-30.5768,-0.53629,0.53629,1.6089,3.7551,4.8276,-24.1393,-1.6099,18.7743,-12.3378,8.0464,-6.9738,28.4306,
-27.3773,-15.5768,1.0726,7.5101,16.6089,18.7551,-1.0726,-17.1654,-4.2914,11.8015,-5.3639,21.4568,-11.8015,43.4306,
-20.921,-3.7556,10.1921,19.8474,2.682,18.7748,-5.9007,-20.921,-2.682,14.4835,-2.682,14.4835,-23.0662,52.0331,
-27.3575,-6.9733,23.0662,29.5037,3.7556,9.1195,-1.6094,-20.92,1.6094,12.3383,-12.3373,-0.51655,-20.92,37.0331,
-22.5304,-1.0726,18.238,17.1654,18.7556,12.8741,1.0726,-21.4568,5.3639,-2.1462,-17.1654,-15.5165,-9.6553,25.7481,
-24.1393,-0.53629,8.0464,5.9013,33.7556,5.9013,-1.6089,-26.2844,5.9013,0.53629,-8.0464,-4.8276,-5.9002,35.9407,
-37.5496,-15.5363,0,3.2188,18.7556,6.4365,0,-25.7481,7.5101,15.5363,-6.4375,-1.0726,-17.1654,46.1323,
-35.9407,-26.2844,-0.53629,-1.6089,26.2844,18.7743,10.1916,-13.4104,14.4829,26.2844,-2.6825,0.53629,-17.7017,52.0326,
-33.7951,-21.9936,-5.9007,-5.9007,41.2844,9.1195,-0.5368,-25.2124,4.8282,13.4109,0.5368,2.682,-11.2647,46.6691,
-40.7684,-21.4568,-1.0726,-2.1452,26.8217,3.2188,-4.2914,-40.2124,4.2914,15.0203,1.0726,4.2914,-5.3639,45.0598,
-40.7684,-25.7481,-1.0726,-4.2914,12.8741,7.5101,1.0726,-32.1857,10.7279,19.3106,-6.4375,1.0726,-11.8015,41.841,
-34.3314,-19.3111,-2.1457,-11.801,21.4563,8.5822,4.2908,-31.1126,17.1649,13.9472,-11.801,2.1457,-15.0197,37.5491,
-30.5758,-16.6291,4.8276,-6.9738,27.357,0.53629,18.7743,-38.0859,28.4306,14.4829,-0.53629,-0.53629,-2.6825,39.1585,
-27.357,-17.7017,4.8276,6.9738,16.6291,-5.9002,13.4104,-35.9397,19.8479,11.2652,-4.8276,-10.1916,-8.0464,37.0133,
-15.556,-17.7022,10.1921,17.7022,12.3373,1.6094,0.5368,-37.0128,4.8479,-0.5368,-19.8276,-12.3373,-20.92,28.4301,
-3.2183,-5.3634,25.1921,25.7486,27.3373,9.6558,8.5832,-32.1852,2.1457,-2.1457,-20.3837,-17.1649,-11.801,35.4039,
-4.2908,-3.2183,26.8212,13.9472,25.7486,-2.1457,16.0923,-28.9664,8.5832,2.1457,-5.3837,-19.3111,-2.1457,39.6953,
-4.2919,-17.1659,15.0197,-1.0528,10.7486,-17.1457,13.9472,-37.5501,16.0923,8.5822,1.0731,-5.3644,-1.0731,28.9664,
-9.6558,-13.9472,17.1649,-7.5106,7.5096,-11.802,11.801,-35.4039,18.2375,16.0923,-4.2919,2.1457,-2.1457,34.3303,
-24.6558,-11.2657,10.1921,-9.1195,12.3373,-5.9007,14.4835,-30.5763,14.4835,11.2647,2.682,-5.9007,-2.682,49.3303,
-27.358,-15.5566,3.7551,-12.3378,8.0464,-4.8276,14.4829,-38.0859,15.5555,3.7551,9.119,-3.7551,-10.1926,55.2513,
-12.358,-6.9738,18.7551,2.6622,17.7017,-0.53629,5.9002,-39.1585,1.6089,-0.53629,-5.881,0.53629,-19.8479,40.2513,
-4.2914,0,33.2583,17.6622,26.8207,0,12.8741,-24.1585,0,3.2188,-17.1654,-2.1462,-9.6553,40.7684,
-18.7753,-11.2652,18.2583,8.0464,11.8207,-6.9738,12.3378,-29.5032,3.7551,1.6089,-9.119,-1.6089,-11.2652,55.7684,
-32.1852,-17.1659,8.5822,3.2183,4.2908,-11.801,2.1457,-44.5032,5.3645,2.1457,-9.6558,-2.1457,-17.1659,51.4968,
-28.9664,-9.6558,21.4573,12.8746,19.2908,-13.9472,8.5832,-36.4765,12.8746,7.5096,-9.6558,-13.9472,-7.5096,37.5501,
-17.7022,-5.9007,10.1921,17.7012,27.3575,-15.5571,14.4835,-30.5763,8.0459,5.9007,-16.6296,-15.5571,-11.2647,40.2316,
-2.7022,0.53629,-0.53629,23.0657,25.2118,-3.7551,17.7017,-34.8682,2.6815,9.119,-14.484,-5.9013,-13.4114,55.2316,
-9.1185,2.682,-2.682,20.921,31.6489,3.7556,5.9007,-35.9402,-8.0459,3.7556,-6.9733,-10.1921,-13.4098,47.7417,
-24.1185,-7.5106,2.1457,7.5096,28.9664,3.2183,5.3634,-26.8212,-3.2193,6.437,-3.2193,-2.1457,-9.6558,32.7417,
-27.8943,-17.1654,5.3639,-7.4904,16.0928,-8.5827,17.1654,-36.477,11.7807,10.7289,1.0726,-3.2188,-1.0726,40.7684,
-21.9931,-4.8276,6.9738,-9.119,18.7743,-11.2652,12.3378,-44.5235,16.6291,4.8276,8.0464,-18.2188,-5.9013,47.7412,
-28.9669,-7.5101,4.2914,-4.2914,23.603,-7.5101,7.5101,-40.7684,10.7289,6.4375,5.3639,-19.3116,-16.0928,38.6222,
-30.0405,-19.3116,13.9467,-6.4375,30.0395,0,15.0192,-37.5496,12.8741,13.9467,-2.1462,-4.3116,-6.4375,42.9136,
-23.6025,-18.2385,21.4573,-8.5832,32.1852,-3.2183,18.2385,-41.8405,16.0923,7.5096,1.0731,-7.5096,-1.0731,46.1328,
-27.8938,-19.3111,10.7284,-17.1649,17.1852,-16.0923,13.9472,-51.4963,18.2385,12.8746,11.802,-15.0197,-10.7284,40.7689,
-23.0667,-17.7027,3.7551,-13.4114,10.1916,-13.4114,10.1916,-49.8879,13.4104,25.2118,9.119,-3.7551,-8.0464,34.8671,
-9.119,-16.6291,1.6089,-3.7551,25.1916,1.5886,11.2652,-44.5235,3.7551,10.2118,-1.6089,-15.5565,-3.7551,31.6494,
-6.4365,-1.6291,-1.0726,11.2449,40.1916,16.5886,12.8741,-35.4034,2.1462,-4.2914,0,-16.0918,-12.8741,46.6494,
-12.8741,7.5091,-10.7289,25.7481,47.2049,23.602,0,-39.6958,0,10.7086,-3.2188,-7.5101,-21.4568,53.6414,
-7.5096,1.0731,-13.9472,18.2385,39.6953,19.3111,-1.0731,-43.9867,2.1457,18.2385,-7.5096,-6.437,-12.8736,46.1328,
-8.5827,-1.0726,-7.5101,9.6553,35.4045,15.0203,6.4375,-32.1857,3.2188,3.2385,-8.5827,1.0726,-12.8741,55.7876,
-17.7027,-4.8276,-0.53629,3.7551,23.0657,0.020258,17.7017,-27.358,11.2642,6.9728,-0.53629,0.53629,-15.5566,59.5427,
-15.5565,-9.119,3.7551,-2.6825,32.722,-5.9002,19.8479,-37.0133,18.7743,21.9728,-0.53629,0.53629,-8.0464,46.6686,
-22.5299,-8.5832,-2.1457,-10.7284,35.4039,2.1457,12.8736,-39.6953,12.8736,22.5289,-5.3645,9.6548,-8.5832,43.9867,
-28.9664,-8.5832,-1.0731,-7.5096,20.4039,-1.0731,20.3837,-35.4039,17.1659,13.9472,1.0731,13.9472,-11.801,47.2054,
-29.5027,-18.7748,2.682,-10.1921,5.9007,-16.0731,14.4835,-44.5229,14.4835,21.9936,-2.682,5.9007,-11.2647,38.0864,
-23.6035,-23.6035,8.5822,-12.8746,11.801,-17.1659,7.5096,-49.3516,12.8736,32.1852,-2.1457,2.1457,-2.1457,35.4039,
-27.8938,-20.3837,15.0197,-5.3645,23.6025,-2.1659,10.7284,-39.6953,11.801,20.3837,-5.3645,2.1457,-7.5096,32.1852,
-28.9664,-18.2385,17.1659,1.0731,13.9472,-3.2183,11.801,-36.4765,6.437,13.9472,-7.5096,-1.0731,-18.2385,37.5501,
-19.8479,-19.8479,19.8479,-3.7551,8.0464,-13.4104,15.5565,-43.4499,13.4104,18.7753,3.7551,-4.8276,-9.119,42.3773,
-15.0192,-12.8741,15.0203,-1.0726,23.0464,-9.6553,7.5101,-46.1323,5.3639,9.6553,-2.1452,1.0726,-9.6553,37.5496,
-14.4835,-3.7546,0.5368,13.9274,25.2124,-3.7546,0.5368,-40.2316,-0.5368,11.2647,-12.3373,9.1195,-13.4109,40.2316,
-11.801,-4.2908,-7.5096,16.0923,10.7284,-3.2183,4.2919,-34.3314,7.5096,19.3111,-5.3645,3.2183,-10.7284,41.8415,
-10.7284,-6.437,-10.7284,6.437,12.8746,-2.1457,4.2919,-40.7679,5.3644,18.2385,-9.6548,2.1457,-13.9461,36.4776,
-8.0459,-4.8282,-2.682,2.682,21.9936,-2.682,12.3373,-40.2316,10.1921,26.2849,-4.8282,9.1195,-11.2647,41.3042,
-12.3378,-11.2642,-5.9002,0.53629,17.7027,-10.1916,5.9013,-42.3773,1.6099,13.4104,0.53629,-0.53629,-18.7743,30.5768,
-8.5827,-15.0192,-5.3639,9.6553,22.5304,4.8084,-1.0726,-41.841,0,3.2188,0,6.4375,-20.3842,32.1857,
-4.2914,-19.3106,0,0,16.0928,9.6563,-3.2178,-39.6948,6.4375,13.9477,-3.2178,11.8015,-16.0918,43.9872,
-1.0726,-18.238,15,-15,8.5827,-5.3437,3.2188,-37.5496,7.5101,10.7279,1.0726,-3.1985,-11.8015,40.7684,
2.6825,-19.8479,30,-19.8479,19.8479,-14.4829,14.4829,-43.4499,6.9738,-2.6825,8.0464,-13.4104,-9.119,31.6494,
7.5101,-20.3842,24.6756,-10.7289,28.9669,-8.5827,3.2188,-42.9136,1.0726,1.0726,-1.0726,-11.8015,-18.238,31.1121,
16.6296,-10.1921,23.0662,2.682,28.4301,1.6094,-6.9733,-27.9136,-2.682,14.4835,-9.1195,-1.6094,-20.92,35.9402,
8.0459,-17.7022,15.556,1.6094,21.9936,-1.6094,-3.7546,-28.4301,-5.9007,14.4835,-8.0459,2.682,-18.7748,37.0128,
-2.682,-13.4109,3.7546,10.1921,25.2124,4.8282,-1.6094,-31.6489,-2.682,14.4835,-1.6094,1.6094,-16.6286,33.7951,
0.53629,-2.6825,-3.7551,15.5555,21.9931,2.6815,-0.53629,-31.6494,4.8276,12.3378,-1.6099,-4.8276,-16.6291,18.7951,
12.3383,-2.682,3.7556,2.682,17.7022,-6.9733,-2.682,-41.3042,2.682,8.0469,-11.2647,-14.4835,-20.92,19.8484,
23.0667,-3.7551,18.7556,-0.53629,26.2844,4.8276,-2.6825,-32.722,0.53629,10.1916,-8.0464,-10.1916,-15.5565,32.722,
15.5566,-14.4829,3.7556,-0.53629,13.4114,4.8276,-8.0464,-28.4296,-2.6815,2.6825,-1.6089,0.53629,-18.7743,18.7753,
12.8751,-12.8741,-11.2444,2.1462,16.0928,0,-9.6553,-31.1121,-2.1452,3.2188,0,5.365,-22.5294,22.5304,
19.3116,-13.9467,0,-2.1462,31.0928,6.4365,-5.3639,-34.3308,0,7.5101,-2.1462,1.0726,-21.4568,34.3308,
16.0934,-12.8736,7.5106,-6.437,28.9674,7.5106,-2.1457,-35.4039,-1.0731,4.2919,-4.2908,1.0731,-22.5299,24.6761,
15.5565,-8.0464,-0.53629,-6.9728,13.9674,-1.6089,4.8276,-32.722,5.9013,2.6825,-3.7551,0.53629,-19.8469,26.2855,
18.2385,-10.7284,-2.1457,-9.6548,19.3121,-5.3634,5.3645,-36.4765,6.437,3.2193,2.1457,-11.801,-18.2375,32.1862,
16.0928,-9.6553,5.3639,0,23.603,-1.0726,-8.5827,-38.6222,-4.2914,0,3.2188,0,-20.3842,33.2583,
9.119,-10.1916,2.6825,8.0464,8.603,-13.4104,-11.2652,-31.6484,-1.6089,3.7551,1.6089,15,-23.0657,33.7946,
13.9467,-5.3639,1.0726,8.5827,-6.397,-27.8943,-2.1452,-19.3106,3.2188,10.7289,5.3639,0,-20.3842,34.3309,
19.3116,2.1462,-1.0726,10.7289,8.603,-30.0395,0,-27.8943,-11.7812,0,1.0726,-15,-20.3842,22.5304,
18.2385,1.0731,5.3644,11.801,23.603,-24.6761,9.6558,-36.4765,-9.6558,-1.0731,-2.1457,-11.801,-15.0197,24.675,
20.921,-1.6094,13.4109,3.7546,34.8677,-19.8474,5.9007,-28.4301,-3.7546,1.6094,-2.682,-5.9007,-15.556,28.4301,
28.4306,3.7551,19.8479,0.53629,40.2311,-25.2118,-3.7551,-23.0667,-2.6825,-0.53629,0.53629,-16.6291,-17.7017,20.9205,
26.2844,8.0464,21.9931,4.8276,43.4499,-37.0133,-0.53629,-34.8682,-3.7551,0.53629,-4.8276,-13.4104,-15.5566,20.9205,
18.7743,3.7551,26.2844,8.0464,31.6484,-38.0859,4.8276,-39.1595,-10.1926,-3.7551,-8.0464,-6.9738,-24.1393,21.9931,
20.3842,0,34.3309,0,30.0395,-33.2583,7.5101,-32.1857,-2.1452,1.0726,-2.1452,-18.238,-26.8207,21.4568,
20.3847,4.2919,25.7486,-2.1457,25.7486,-35.4039,1.0731,-34.3314,-1.0731,5.3645,-12.8736,-25.7486,-22.5299,21.4573,
20.92,9.1185,17.7022,10.1921,25.2113,-30.5763,1.6094,-34.8677,-8.0469,-1.6094,-16.6296,-20.921,-17.7022,20.92,
23.0667,6.9738,14.484,12.3378,28.4306,-19.8469,4.8276,-21.9931,-8.0464,-4.8276,-14.4829,-18.7743,-11.2642,18.7753,
23.0667,8.0464,11.2652,13.4104,23.0667,-23.0657,-4.8276,-17.7017,-4.8276,4.8276,-18.7743,-20.9205,-16.6291,24.1393,
25.2113,10.1921,8.0459,20.92,19.8474,-25.2124,-10.1921,-32.7017,-5.9007,5.9007,-24.1398,-28.4311,-31.6291,24.1388,
40.2113,22.5304,17.1654,30.0395,34.8474,-10.2124,-1.0726,-31.1121,-9.6553,1.0726,-19.3106,-30.0395,-33.2583,20.3842,
52.0331,21.9936,20.921,15.556,49.8474,-15.556,0.5368,-27.3575,-10.1921,-0.5368,-14.4835,-26.2849,-20.92,15.556,
40.2316,18.7748,11.2647,3.7556,37.0138,-25.2113,-2.682,-31.6489,-4.8271,2.682,-10.1921,-24.1388,-13.4098,16.6296,
27.357,19.8479,0.53629,1.6089,22.0138,-29.5032,-3.7551,-38.0859,-0.53629,0.53629,-10.1926,-35.9407,-21.9931,18.7743,
26.2849,10.1921,-1.6094,-13.3911,8.0469,-43.4504,3.7556,-42.3768,8.0469,1.6094,-9.1185,-46.6681,-26.2849,18.7748,
26.8212,2.1457,1.0731,-28.3911,5.3645,-49.3506,-1.0731,-38.6227,6.437,9.6558,-9.6558,-42.9141,-24.675,22.5299,
26.8212,7.5096,2.1457,-17.1659,2.1457,-47.2054,-2.1457,-35.4039,6.437,24.6558,-3.2183,-27.9141,-22.5299,27.8938,
26.8212,3.2183,-3.2183,-11.801,-3.2183,-43.9867,4.2919,-32.1852,12.8746,24.675,6.437,-12.9141,-21.4573,28.9674,
23.603,0,-6.4365,-10.7279,8.5827,-34.3308,0,-27.8943,7.5101,9.675,0,1.0726,-30.0395,27.8943,
20.9205,1.6089,-0.53629,-3.7551,17.7017,-34.8682,0.53629,-20.9205,5.9002,21.9931,-0.53629,-6.9738,-24.1393,30.5758,
16.6291,3.7551,-0.53629,-0.53629,2.7017,-42.3773,-1.6089,-15.5565,0.53629,21.9931,0.53629,-13.4104,-19.8479,28.4306,
21.4568,10.7279,1.0726,2.1452,0,-27.3773,0,-12.8741,-1.0726,6.9931,-3.2188,-7.5101,-24.6756,24.6756,
16.0934,10.7284,10.7284,7.5096,6.437,-13.9472,-1.0731,-20.3837,1.0731,-8.0069,-5.3644,-6.437,-30.039,19.3111,
9.6558,20.3837,17.1659,22.5096,11.801,-12.8746,-1.0731,-18.2385,-3.2183,-1.0731,1.0731,-3.2183,-26.8212,26.8212,
0.53629,20.9205,12.3378,14.484,9.119,-15.5555,8.0464,-15.5555,-10.1916,-0.53629,-1.6089,-12.3378,-24.1382,28.4306,
-2.1452,23.603,6.4375,4.2914,19.3116,-17.1654,19.3116,-11.8005,0,-6.4365,0,-9.6553,-19.3106,27.8943,
-3.7551,29.5032,0.53629,4.8276,24.1393,-32.1654,10.1916,-15.5566,2.6825,-5.9002,-0.53629,-2.6825,-20.9205,20.9205,
-10.7284,26.8212,12.8736,10.7284,9.1393,-41.8415,8.5822,-22.5299,2.1457,-2.1457,-7.5106,-17.6825,-18.2385,19.3111,
-20.9205,32.721,27.8736,25.7284,-5.8607,-30.5768,21.9931,-13.4114,10.1916,4.8276,-4.8276,-26.2855,-11.2652,34.3111,
-35.9205,27.357,14.4829,23.0657,-20.8607,-35.9407,13.4104,-11.2652,10.1916,-3.7551,3.7551,-14.484,-14.484,32.722,
-38.6227,21.4563,-0.51706,11.801,-35.4039,-49.3506,1.0731,-8.5832,10.7284,2.1457,4.2908,-7.5096,-18.2385,21.4563,
-39.1585,19.8479,8.0464,11.2652,-20.4039,-41.3047,3.7551,-3.7551,9.119,15.5565,-10.7092,-9.119,-16.6291,33.7946,
-34.8677,14.4835,17.7022,15.556,-5.4039,-26.3047,8.0459,-8.0459,2.682,8.0459,-18.7748,-10.1921,-20.92,40.2316,
-19.8677,25.7476,26.8212,30.039,9.5961,-13.9472,2.1457,-9.6558,-3.2193,2.1457,-12.8746,-2.1457,-25.7486,36.4765,
-10.7279,23.603,26.8217,22.5304,17.1664,-20.3832,0,-13.9467,-6.4365,10.7289,-15.0192,0,-23.6019,35.4045,
-25.7279,10.7279,15.0192,7.5304,9.6553,-28.9669,8.5827,-16.0928,-5.365,17.1654,-16.0928,0,-20.3842,31.1121,
-39.159,1.6094,3.7556,-7.4696,8.0469,-30.5763,5.9007,-13.4098,-1.6094,5.9007,-14.4835,5.9007,-26.2839,20.921,
-38.0859,4.8276,-1.6089,-16.6291,9.119,-33.7946,12.3378,-9.119,10.1916,4.8276,-12.3378,1.6089,-18.7743,25.2118,
-23.0859,19.8276,4.2914,-11.8015,7.5101,-34.3308,25.7481,-4.2914,16.0928,13.9467,-12.8741,-11.8015,-4.2914,40.2118,
-8.0859,27.357,19.2914,-5.9013,-5.9013,-41.3047,24.1393,-2.6825,17.7017,14.4829,-6.9738,-12.3378,-3.7551,43.4499,
-16.0934,12.357,24.675,2.1457,-20.9013,-49.3516,15.0197,-3.2193,15.0197,16.0923,-2.1457,-13.9472,-10.7294,35.4039,
-31.0934,6.4365,9.675,9.6553,-35.9013,-36.477,6.4365,-4.2914,8.5827,9.6553,-13.9477,-27.8943,-20.3842,26.8207,
-16.0934,13.9472,2.1457,11.802,-34.3303,-21.477,9.6558,-2.1457,17.1659,9.6558,-12.8736,-17.1649,-16.0923,30.04,
-5.3639,12.8741,9.6553,10.7289,-36.477,-24.6756,5.3639,-6.4365,10.7289,5.3639,-10.7279,-6.4365,-22.5294,31.1131,
-5.365,21.4568,21.4568,19.3106,-23.603,-19.3116,10.7279,-4.2914,4.2914,10.7279,-5.365,-18.239,-27.8943,27.8933,
-5.3639,27.8943,24.6756,20.3842,-19.3106,-11.8005,11.8015,-4.2914,4.2914,18.239,-8.5827,-22.5294,-26.8207,25.7492,
-9.6558,24.6761,15.0197,22.5299,-34.3106,-11.801,1.0731,1.0731,-1.0731,12.8746,-23.5827,-7.5294,-24.675,28.9674,
-6.9733,15.556,1.6094,17.7022,-49.3106,-15.556,4.8282,3.7556,-1.6094,9.1195,-21.9936,-2.682,-17.7022,34.8677,
3.2183,17.1649,-1.0731,2.7022,-47.2054,-22.5299,8.5822,-8.5832,2.1457,13.9472,-10.7284,-6.437,-16.0934,34.3314,
-0.53629,28.4306,1.6089,2.6815,-38.0859,-21.9941,0.53629,-14.484,2.6815,14.4829,-12.3378,-3.7551,-11.2652,29.5032,
-1.6089,32.722,2.6825,16.6291,-38.0859,-13.4104,2.6825,-2.6825,8.0464,1.6089,-17.7017,-14.4829,-6.9738,28.4306,
0,20.3832,2.1452,3.2178,-47.2059,-22.5304,5.3639,0,3.2178,-11.8015,-20.3842,-29.4829,-21.9738,23.602,
0.5368,11.2647,13.4109,-11.7822,-52.0331,-34.8677,12.3373,-0.5368,14.4835,3.1985,-9.1195,-31.6489,-16.6296,32.7215,
-4.2908,13.9472,15.0197,-15.0197,-50.4237,-40.7679,13.9472,1.0731,23.6025,18.1985,-4.2908,-19.3111,-1.6296,40.7679,
-13.9477,17.1654,4.2914,-17.1654,-47.2049,-43.9872,10.7279,3.2188,18.238,28.9669,-5.3639,-8.5827,-3.2188,35.4034,
-21.4573,18.2385,-1.0731,-6.437,-42.9141,-35.4039,10.7284,5.3644,17.1649,32.1852,-8.5832,1.0731,-9.6558,30.04,
-25.2124,16.6286,-2.682,5.9007,-37.0138,-29.5037,3.7546,-1.6094,9.1185,18.7748,-16.6296,1.6094,-12.3383,28.4301,
-21.4568,10.7279,-1.0726,1.0726,-38.6222,-35.4045,8.5827,-3.2188,13.9467,15.0192,-7.5101,6.4365,-5.3639,33.2583,
-30.5768,5.9002,-1.6099,-0.53629,-49.8874,-41.3047,6.9728,0.53629,14.4829,23.0657,-5.9013,6.9728,-10.1926,31.6484,
-35.4039,13.9472,1.0731,11.801,-56.8607,-37.5491,-4.2908,-1.0731,5.3645,18.2385,-16.0923,1.0731,-7.5096,31.1126,
-28.4306,14.484,5.9013,12.3378,-41.8607,-30.5758,0.53629,-0.53629,9.119,12.3378,-15.5566,-6.9728,-1.6089,35.9407,
-31.1121,9.6553,5.3639,2.1462,-26.8607,-28.9669,1.0726,-1.0726,11.8015,12.8741,-17.1654,-12.8741,-9.6553,33.2583,
-38.6227,5.3634,2.1457,3.2183,-36.4775,-32.1862,2.1457,-2.1457,10.7284,12.8736,-15.0208,-20.3847,-8.5832,30.039,
-31.1121,12.8741,2.1462,17.1654,-39.6948,-31.1121,1.0736,0,4.2914,0,-10.7279,-32.1847,-7.5091,28.9669,
-16.1121,27.8741,17.1462,32.1654,-24.6948,-16.1121,2.682,5.9007,3.7556,-2.682,-11.2647,-26.2849,-14.4835,35.9402,
-10.7284,38.6227,28.9674,33.2588,-9.6948,-3.2183,7.5096,-3.2183,3.2183,4.2919,-18.2385,-17.1659,-18.2385,34.3314,
-13.9472,30.04,32.1852,31.1126,-1.0731,-4.2908,4.2919,-2.1457,1.0731,12.8746,-10.7284,-8.5822,-11.801,36.4765,
-13.4098,25.2124,21.9936,32.7225,-1.6094,-13.4098,-8.0459,1.6094,1.6094,14.4835,-9.1185,-16.6286,-16.6286,35.9402,
-20.3837,28.9664,8.5822,33.2578,-11.801,-10.7284,-5.3645,5.3645,12.8736,17.1649,-15.0197,-11.801,-13.9472,37.5491,
-30.04,25.7476,-6.4178,31.1126,-22.5299,-8.5832,-2.1457,2.1457,9.6548,13.9461,-16.0934,3.199,-16.0934,32.1852,
-15.04,27.3575,-4.8271,38.0864,-10.1921,-10.1921,1.6094,-1.6094,4.8282,13.4109,-9.1185,10.1921,-21.9936,30.5763,
-0.53629,33.7946,10.1729,43.4509,-10.1916,-15.5555,-1.6089,-0.53629,0.53629,11.2652,-20.9205,1.6099,-24.1382,31.6494,
-10.1916,29.5032,25.1729,33.7946,-25.1916,-30.5555,-3.7551,5.9002,3.7551,18.7743,-29.5032,-6.9738,-19.8479,30.5758,
-11.2642,26.2855,23.0667,18.7946,-40.1916,-40.2311,-3.7551,3.7551,5.9013,21.9931,-21.9931,-20.9205,-16.6291,26.2855,
1.6094,30.5763,18.7748,17.7012,-25.1916,-25.2311,-2.682,-1.6094,4.8271,13.4098,-14.4835,-17.7022,-17.7022,28.4301,
-3.2183,15.5763,6.437,17.1659,-11.801,-10.2311,3.2183,-6.437,7.5096,6.437,-15.0197,-7.5096,-19.3111,27.8938,
-15.0197,10.7284,-3.2183,15.0197,-26.801,-11.802,8.5822,3.2183,9.6558,7.5096,-6.437,-8.5832,-10.7284,33.2578,
-20.3842,16.0928,3.2188,11.8015,-34.3308,-19.3116,5.3639,1.0726,1.0726,-1.0726,-4.2914,-19.3116,-4.2914,31.1121,
-5.3842,22.5294,18.2188,26.8015,-19.3308,-6.4365,8.5827,-1.0726,1.0726,4.2914,-8.5827,-4.3116,-8.5827,27.8943,
-1.6094,20.921,31.6489,38.0864,-4.3308,-0.5368,-1.6094,0.5368,-10.1921,-0.5368,-19.8474,1.6094,-23.5827,23.0662,
-13.4104,10.1916,27.357,38.0859,0.53629,-0.53629,6.9728,10.1916,-1.6099,-1.6099,-6.9738,-2.6825,-21.9931,32.722,
-28.4104,-0.53629,12.357,28.4306,-14.4637,-6.9738,8.0464,5.9002,0.53629,6.9728,-5.9013,-4.8276,-15.5566,37.0133,
-30.5768,5.9002,0.53629,24.1393,-29.4637,-6.9738,-0.53629,12.3378,-3.7551,14.4829,-11.2652,0.53629,-14.484,45.596,
-15.5768,3.7556,12.3383,23.0662,-37.0128,-13.4098,-3.7546,15.556,-1.6094,9.1195,-11.2647,1.6094,-12.3373,48.8143,
-4.2914,0,22.5294,28.9669,-26.8207,-17.1654,3.2188,6.4375,0,6.4375,-11.8015,-2.1452,-15.0192,41.841,
-6.437,5.3645,20.3837,23.6025,-24.675,-13.9472,9.6558,-2.1457,2.1457,11.801,-12.8746,-3.2183,-13.9472,27.8938,
-6.4365,6.4375,12.8741,10.7289,-18.238,-18.238,0,5.3639,0,12.8741,-12.8741,0,-11.8015,34.3309,
-11.2647,-8.5625,5.9007,1.6094,-9.1195,-14.4835,-0.5368,17.7022,8.0459,12.3373,-3.7546,0.5368,-8.0459,49.3309,
-26.2647,-19.8479,0.53629,-9.119,-16.6291,-15.5565,9.119,10.1916,20.9205,12.3378,11.2454,-0.53629,-0.53629,52.0326,
-32.722,-17.7017,1.6089,-6.9738,-26.2844,-28.4306,3.7551,4.8276,12.3378,9.119,8.0464,-1.6089,-2.6825,37.0326,
-17.722,-21.9936,11.2647,8.0262,-20.921,-26.2849,-0.5368,13.4109,10.1921,19.8474,-1.6094,0.5368,-1.6094,42.3778,
-2.722,-18.2385,23.6025,9.6548,-25.7486,-15.0197,-3.2193,8.5822,13.9461,15.0197,-5.3644,-4.2919,2.1457,46.1318,
-6.9738,-4.8276,17.7017,20.9205,-24.1393,-10.1916,-3.7551,5.9002,6.9738,6.9738,-12.3378,3.7551,-6.9738,40.2321,
-10.1916,-10.1916,2.7017,35.9205,-14.4829,-0.53629,0.53629,10.1926,5.9013,19.8479,-6.9728,16.6291,-11.2642,43.4509,
-11.8015,-17.1654,0,27.8943,-16.0928,1.0726,-5.3639,4.2914,2.1462,17.1654,0,1.6291,-5.3639,45.0598,
1.0731,-7.5096,15,19.3111,-12.8746,-8.5832,-1.0731,6.437,3.2183,2.1654,-5.3644,-8.5832,-4.2919,41.8405,
4.8276,-8.0464,15.5555,11.2642,-19.8479,-5.9013,-0.53629,5.9002,0.53629,-2.6825,-18.7753,1.6089,-17.7017,33.7946,
-4.2914,-6.4365,1.0726,6.4375,-33.2583,1.0726,-5.3639,7.5101,7.5101,12.3175,-11.8015,-1.0726,-17.1654,26.8217,
0,-6.4375,5.3639,7.5091,-33.2583,-6.4375,0,11.8005,12.8741,20.3832,-1.0736,-15.0203,-15.0203,26.8207,
15,-7.5096,-2.1457,9.6558,-31.1126,-7.5096,-2.1457,5.3645,2.1457,8.5832,-13.9472,-0.020259,-18.2385,40.7679,
21.4568,-5.3639,-7.5101,5.3639,-27.8943,2.1452,-4.2914,-1.0726,1.0726,22.5294,-13.9467,14.9797,-8.5827,47.2049,
6.4568,-4.8282,-2.682,1.6094,-21.9936,2.682,-5.9007,4.8282,3.7546,28.4301,-3.7546,0.5368,-8.0459,34.8677,
4.2914,1.0726,-2.1452,-2.1452,-18.238,3.2188,-7.5101,11.8015,-1.0726,13.4301,-3.2188,8.5827,-15.0192,36.477,
19.2914,-0.53629,-6.9728,-9.119,-17.7017,-0.53629,0.53629,9.119,4.8276,11.2652,-5.9002,20.9205,-4.8276,47.7422,
15.0192,-10.7289,-10.7289,-10.7289,-20.3842,-10.7289,1.0726,8.5827,4.2914,16.0928,-8.5827,5.9205,-1.0726,37.5496,
0.019237,-11.8015,-9.6553,-11.8015,-32.1857,-10.7289,2.1452,7.5101,1.0726,8.5827,1.0726,7.5101,-1.0726,26.8207,
2.682,-4.8271,-4.8271,-9.1185,-41.3042,-15.556,-3.7546,1.6094,8.0469,6.9733,8.0469,19.8474,-1.6094,27.3575,
8.5827,0,-9.6553,3.2188,-38.6222,-24.6756,-18.7546,4.2914,5.365,0,0,10.7289,-11.8005,32.1857,
11.2642,1.6089,-23.0667,5.9002,-30.5768,-10.1926,-6.9738,15.5555,-0.53629,0.53629,-2.6825,6.9728,-4.8276,45.596,
13.4104,0.53629,-30.5758,-4.8276,-24.1393,-1.6089,3.7551,15.5566,-6.9728,2.6825,-10.1916,-0.53629,1.6099,37.0133,
24.1393,6.9738,-15.5758,-1.6089,-9.1393,-5.9002,-0.53629,13.4104,1.6099,2.6825,-9.119,-3.7551,0.53629,22.0133,
32.722,8.0464,-0.57579,-4.8276,-18.7753,-10.1926,-1.6099,15.5555,9.119,1.6089,-9.119,0.53629,-2.6825,26.2844,
20.92,5.9007,-6.9733,-13.4109,-31.6489,-5.9007,4.8271,13.4098,-1.6094,6.9733,-13.4109,1.6094,-4.8282,31.6489,
5.92,1.6099,-2.6815,-13.4104,-20.9205,-16.6291,14.484,2.6825,0.53629,10.1926,-4.8276,-0.53629,-1.6089,27.358,
-2.1462,-6.4375,0,-15.0203,-35.9205,-31.6291,8.5827,4.2914,7.5091,0,0,7.5091,-6.4375,34.3308,
3.7556,-9.1195,-12.3373,-24.1388,-45.5955,-27.3575,1.6094,18.7748,11.2647,4.8282,-1.6094,21.9936,-4.8271,43.4504,
1.0731,-11.801,-27.3373,-33.2578,-30.5955,-12.3575,6.437,9.6558,4.2919,7.5096,-5.3645,15.0197,-1.0731,39.6953,
4.2914,-1.0726,-28.9669,-22.5294,-15.5955,1.0726,7.5101,4.2914,-4.2914,4.2914,-13.9467,0.019745,-2.1452,39.6958,
3.2183,2.1457,-13.9669,-9.6558,-1.0731,-5.3645,5.3644,13.9472,1.0731,6.437,-15.0197,-5.3645,-5.3645,34.3314,
4.2914,0,1.0331,1.0736,-9.6553,-11.8005,0,12.8741,0,6.4375,-11.8005,-2.1452,-11.8005,26.8217,
19.2914,0.53629,14.4829,0.53629,5.3447,-14.4829,-2.6825,0.53629,-8.0464,-0.53629,-11.2652,-8.0464,-18.7743,34.8671,
26.8212,-2.1457,11.801,-6.437,9.6558,-16.0923,6.437,-1.0731,-3.2183,2.1457,1.0731,-5.3644,-13.9472,40.7679,
11.8212,-5.3639,0,-8.5827,-5.3442,-16.0928,7.5101,0,-1.0726,3.2188,2.1462,0,-18.238,25.7679,
8.5832,1.0731,-1.0731,-1.0731,-5.3645,-13.9472,10.7284,2.1457,7.5096,6.437,-1.0731,-1.0731,-18.2385,28.9664,
15.0203,0,0,-12.8741,9.6355,-18.238,3.2188,-2.1452,5.365,10.7289,0,-3.2178,-16.0928,35.4045,
8.0469,-10.1921,1.6094,-26.2849,3.7556,-23.0662,-6.9733,-4.8271,2.682,13.4109,5.9007,-1.6094,-17.7022,34.8677,
6.9738,-14.484,2.6825,-25.2118,-9.119,-21.9931,0.53629,-2.6825,13.4104,10.1916,5.9002,-0.53629,-15.5565,34.8671,
14.4829,-8.0464,-5.9002,-14.4829,5.881,-15.5565,0.53629,-0.53629,5.9002,1.6089,-9.0998,3.7551,-23.0667,34.8671,
21.9931,-1.6089,-11.2652,-3.7551,20.881,-6.9738,-0.53629,8.0464,0.53629,14.484,-6.9738,18.7551,-32.722,40.2321,
16.6291,-4.8276,-20.9205,-10.1916,11.2652,-17.7017,-0.53629,2.6825,-1.6089,11.2652,0.53629,15.5565,-37.0133,37.0133,
9.6553,-2.1452,-22.5294,-6.4365,5.3639,-21.4568,5.3639,-1.0726,4.2914,-1.0726,3.2188,1.0726,-30.0395,32.1857,
-4.8276,-9.119,-14.4829,2.6825,-0.53629,-17.7017,4.8276,1.6099,3.7551,1.6099,0.53629,-8.0464,-31.6484,23.0667,
-11.2652,-2.6825,-0.53629,5.9002,-9.119,-14.4829,-0.53629,2.6825,1.6089,8.0464,1.6089,0.53629,-37.0133,26.2844,
-5.3639,0,6.4365,-2.1462,-11.8015,-28.9669,5.3639,-6.4375,13.9467,6.4365,4.2914,0,-27.8943,32.1857,
0.5368,-5.9007,0.5368,-0.5368,-10.1921,-38.0864,15.556,-6.9733,21.9936,6.9733,8.0459,-11.2647,-18.7748,27.3575,
-6.9733,-3.7546,-1.6094,5.9007,-5.9007,-28.4301,5.9007,3.7556,6.9936,1.6094,9.1195,-1.6094,-25.2113,27.3575,
-12.3378,2.6825,13.3906,4.8276,-0.53629,-17.7017,-8.0464,5.9013,-8.0064,0.53629,-0.53629,9.119,-29.5032,31.6494,
-9.6558,5.3645,11.801,9.6558,-9.6558,-15.0197,-7.5096,4.2908,-3.2183,3.2183,-10.7284,5.3645,-34.3314,24.675,
-9.119,0.53629,-3.199,15.5555,-23.0667,-13.4104,-0.53629,9.119,1.6089,2.6815,-5.9013,13.4104,-34.8682,30.5758,
-10.7279,5.365,6.4375,23.603,-12.8741,-2.1452,0,21.4578,-1.0726,0,-1.0726,21.4578,-31.1121,45.5758,
-13.4104,12.3378,21.4375,33.7946,-2.6825,-2.6825,-1.6089,21.9931,-2.6825,1.6089,-14.4829,23.0667,-31.6494,42.3773,
-17.1649,-1.0731,15.0197,28.9674,-17.6825,-17.6825,1.0731,6.9931,-2.1457,4.2919,-11.801,17.1659,-34.3314,27.3773,
-7.5101,3.2188,13.9467,30.0395,-19.3116,-8.5827,0,10.7279,-8.5827,0,-5.3639,2.1659,-36.477,24.6756,
-0.5368,18.2188,24.1388,31.6489,-10.1921,6.4173,0.5368,21.9936,-11.2647,-8.0459,-14.4835,-4.8282,-37.0128,29.5037,
-13.9467,12.8741,17.1654,18.238,-25.1921,20.3842,3.2188,16.0928,-8.5827,-5.3639,-16.0928,-3.2188,-38.6222,18.238,
-17.1654,3.2188,15.0203,26.8217,-32.1857,5.3842,1.0726,8.5827,-8.5827,-1.0726,-4.2914,-4.2914,-39.6948,22.5304,
-9.1185,1.6094,23.0662,41.3052,-21.9926,9.1195,3.7556,9.1195,-9.1185,-1.6094,-3.7546,-4.8271,-33.794,31.6489,
-6.9733,13.4109,26.2849,37.0138,-12.3373,23.0662,1.6094,19.8484,-6.9733,-5.9007,-15.556,-1.6094,-34.8677,26.2849,
-6.9738,25.2118,23.0657,30.5758,0.53629,25.2118,-0.53629,21.9931,-4.8276,-9.119,-13.4104,-4.8276,-47.7422,30.5758,
-10.7279,18.239,18.239,31.1131,-1.0726,17.1654,1.0726,16.0928,-5.3639,-6.4365,-5.3639,-15.0192,-51.4963,40.7684,
-16.0918,19.3116,17.1664,36.477,-7.5091,24.6756,0,16.0928,-5.3639,0,-5.3639,-5.3639,-46.1323,36.477,
-24.1388,19.8474,10.1921,29.5037,-14.4835,33.7951,-4.8282,11.2647,-4.8282,-5.9007,-10.1921,4.8282,-52.0331,24.1388,
-24.1388,15.556,6.9733,24.1388,-29.4835,24.1388,-10.1921,9.1195,-6.9733,-14.4835,-11.2647,9.1195,-61.6884,32.7215,
-15.0197,8.5832,3.2183,21.4573,-38.6227,21.4573,-7.5096,16.0934,-3.2183,-4.2908,-6.437,5.3645,-57.9333,45.0592,
-24.675,-2.1457,-8.5832,6.4573,-28.9664,31.1126,-4.2919,15.0197,1.0731,5.3644,-1.0731,8.5822,-49.3506,38.6227,
-34.3308,-1.0726,-8.5827,-8.5427,-16.0928,31.1121,-1.0726,12.8741,1.0726,7.5101,7.5101,12.8741,-46.1323,41.841,
-24.675,-1.0731,-8.5822,-20.3837,-25.7486,16.1121,1.0731,9.6558,6.437,1.0731,10.7284,-2.1259,-46.1318,36.4765,
-12.8741,3.2178,-15.0203,-5.3837,-32.1857,10.7279,0,11.8005,11.8005,1.0726,0,-17.1259,-51.4973,31.1121,
-18.7743,-0.53629,-8.0464,4.8276,-27.357,14.484,-8.0464,12.3378,0.53629,9.119,-14.4829,-2.1259,-61.6879,26.2855,
-21.9936,-1.6094,6.9536,1.6094,-25.2113,2.682,-2.682,6.9733,-1.6094,9.1195,-6.9733,1.6094,-59.5432,20.921,
-30.5763,4.8271,5.9007,-4.8282,-31.6489,2.682,2.682,-4.8282,-2.682,3.7546,-4.8282,4.8271,-53.1057,29.5027,
-35.9397,10.1926,-6.9728,-8.0464,-34.8671,15.5565,5.9013,-5.9002,3.7551,18.7546,-3.7551,19.8271,-43.4499,43.4509,
-25.7476,8.5832,-6.437,2.1457,-33.2578,4.2919,-3.2183,-4.2908,4.2919,27.8948,-2.1457,15.0197,-45.0592,34.3314,
-17.1654,13.9467,-5.3639,16.0928,-27.8943,1.0726,-1.0726,-5.3639,-2.1462,12.8948,2.1452,4.2914,-50.4237,24.6756,
-32.1654,9.1195,-18.7748,1.0928,-31.6489,6.9733,9.1195,-11.2647,-3.7546,1.6094,1.6094,3.7556,-54.1782,29.5037,
-33.2588,10.7284,-17.1659,-11.801,-33.2588,6.437,5.3645,-6.437,1.0731,10.7284,-1.0731,9.6558,-46.1328,37.5491,
-18.2588,13.9467,-9.6553,3.199,-42.9136,-4.2914,0,-4.2914,0,6.4375,1.0726,9.6553,-39.6948,32.1857,
-12.8741,9.6553,-7.5101,0,-40.7684,0,12.8741,-7.5101,5.3639,-4.2914,2.1452,5.3639,-46.1323,34.3308,
-27.8741,10.1916,-10.1916,-15,-28.4306,6.9738,13.4104,-8.0464,11.2652,-1.6089,4.8276,1.6089,-45.596,35.9407,
-30.04,9.6548,-16.0934,-19.3121,-40.7689,-2.1457,4.2908,-9.6558,12.8736,7.5096,9.6548,2.1457,-33.2588,34.3303,
-20.3842,18.238,-10.7289,-6.4375,-47.2049,-3.2188,8.5827,-3.2188,7.5101,5.3639,3.2188,6.4365,-35.4045,38.6222,
-31.6489,12.3373,2.682,-5.9007,-48.8148,-3.7546,14.4835,1.6094,8.0459,3.7546,-1.6094,-2.682,-42.3778,35.9402,
-33.2578,1.0731,9.6558,-1.0731,-52.5694,-4.2919,17.1659,-1.0731,19.3111,18.7546,7.5096,-1.0731,-35.4039,36.4765,
-27.3575,9.1195,-1.6094,1.6094,-47.7417,-6.9733,9.1195,-5.9007,5.9007,20.921,-4.8271,3.7556,-33.794,37.0138,
-21.9936,16.6286,-1.6094,3.7546,-39.159,0.5368,12.3373,-1.6094,-0.5368,11.2647,-9.1195,10.1921,-31.6489,38.0864,
-24.6761,8.5822,-2.1457,8.5822,-40.7679,8.5822,7.5096,-6.437,-2.1457,2.1457,-6.437,4.2908,-38.6227,33.2578,
-27.3575,6.9733,-2.682,14.4835,-32.7215,5.9007,2.682,-9.1195,6.9733,5.9007,-6.9733,-6.9733,-34.8677,30.5763,
-32.7215,11.2647,-1.6094,10.1921,-25.2124,1.6094,3.7546,-6.9733,8.0459,9.1195,-9.1195,-6.9733,-32.7215,31.6489,
-28.4301,15.556,-0.5368,15.556,-24.1388,15.556,2.682,-8.0459,-5.9007,1.6094,-10.1921,0.5368,-46.6691,27.3575,
-19.3116,11.8015,1.0726,18.238,-25.7481,18.238,10.7279,-10.7289,-2.1462,7.5101,-6.4375,-1.0726,-46.1323,27.8943,
-18.2385,17.1659,-2.1457,5.3645,-33.2578,6.437,10.7284,-7.5096,2.1457,15.0197,-4.2908,-4.2908,-35.4039,33.2588,
-10.7289,22.5294,2.1452,0,-28.9669,11.8005,8.5827,-2.1462,0,7.5091,-2.1462,-4.2914,-37.5496,31.1121,
0.53629,20.9205,-5.9002,5.9002,-13.9669,21.9931,10.1916,-6.9738,-0.53629,2.6825,-6.9738,-3.7551,-44.5235,24.1393,
-13.9467,21.4568,-20.9002,3.2188,-20.3842,11.8015,3.2188,-8.5827,-3.2188,13.9467,-15.0192,4.2914,-40.7684,28.9669,
-28.9467,17.7022,-21.9936,-0.5368,-35.3842,0.5368,10.1921,-3.7546,1.6094,18.7748,-6.9733,11.2647,-30.5763,37.0128,
-29.5032,10.1916,-6.9936,-0.53629,-40.2321,0.53629,17.7017,-5.9002,9.119,4.8276,-2.6825,10.1916,-32.722,32.722,
-28.9664,5.3644,8.0064,-6.437,-34.3303,-2.1457,8.5832,-8.5822,6.437,4.2919,-2.1457,2.1457,-35.4039,33.2588,
-25.2124,13.4109,2.682,-5.9007,-30.5763,-3.7546,6.9733,-0.5368,0.5368,8.0459,3.7546,-8.0459,-30.5763,35.9402,
-10.2124,23.0662,1.6094,9.0993,-29.5027,-1.6094,11.2647,1.6094,-2.682,-4.8271,9.1195,-6.9733,-32.7215,31.6489,
-7.5096,9.6558,2.1457,13.9472,-39.6953,2.1457,4.2908,-13.3906,-2.1457,-8.5832,2.1457,-9.6558,-43.9867,21.4573,
-4.2914,8.5827,3.2188,4.2914,-40.7684,17.1457,1.0726,-9.6553,-1.0726,6.4168,-1.0726,-4.2914,-39.6958,25.7481,
-3.2188,20.3842,-1.0726,-4.2914,-49.3511,19.3116,4.2914,1.0726,-9.6553,13.9467,-1.0726,4.2914,-33.2583,32.1857,
-3.7551,17.7017,-3.7551,1.6089,-61.6889,6.9738,11.2652,-1.6089,-10.1916,2.6825,-3.7551,2.6825,-33.7946,31.6494,
1.6094,17.7022,0.5368,14.4835,-54.1782,11.2647,11.2647,-1.6094,-10.1921,-0.5368,-8.0459,-0.5368,-35.9402,29.5037,
0.53629,21.9931,-4.8276,17.7017,-42.3773,19.8469,5.9002,-3.7551,-14.484,-0.53629,-8.0464,11.2642,-38.0859,24.1393,
1.6094,27.3575,-3.7556,19.8474,-33.7951,23.0662,5.9007,-1.6094,-6.9733,-1.6094,-5.9007,23.0662,-29.5037,26.2849,
16.6094,22.5294,-1.0726,7.5101,-32.1857,24.6756,0,-1.0726,-10.7289,0,-8.5827,8.5827,-32.1857,27.8943,
20.92,15.556,-1.6094,-7.4899,-38.0864,15.556,5.9007,-8.0469,-12.3383,1.6094,2.682,-6.4173,-27.3575,25.2113,
5.92,19.8479,-0.53629,-17.7017,-37.0133,5.9002,15.5565,-8.0464,-6.9738,0.53629,15.5565,-12.3378,-15.5566,29.5032,
-0.5368,12.3373,0.5368,-2.7017,-41.3042,3.7546,5.9007,-9.1195,-8.0459,-3.7546,5.9007,-16.6296,-21.9936,26.2849,
14.4632,18.7753,15.5368,12.2983,-41.3047,18.7546,-3.7551,-8.0464,-9.119,-0.53629,0.53629,-9.119,-30.5758,21.9941,
26.2849,33.7753,29.5037,27.2983,-28.4301,33.7546,-0.5368,-4.8282,-6.9733,-4.8282,0.5368,-1.6094,-34.8677,17.7022,
12.8736,18.7753,17.1659,18.2385,-37.5501,18.7546,5.3645,-10.7284,-5.3645,-6.437,-10.7284,-13.9472,-37.5501,16.0923,
11.801,5.3645,2.1659,7.5096,-52.5501,8.5832,-2.1457,-12.8736,-9.6558,2.1457,-20.3837,-18.2385,-41.8405,20.3847,
19.3111,13.9472,2.1457,18.2385,-48.278,22.5299,-4.2908,-4.2908,-2.1457,6.437,-9.6548,-4.2908,-35.4039,25.7486,
18.7748,15.556,-2.682,17.7022,-39.159,11.2647,-3.7546,-8.0459,-0.5368,3.7546,-0.5368,0.5368,-30.5763,23.0662,
31.6484,19.8469,-0.53629,23.0657,-24.159,9.119,-2.6825,-10.1926,-1.6099,8.0464,0.53629,-1.6099,-31.6494,26.2844,
27.8933,12.8741,0,20.3832,-19.3116,13.9467,-1.0736,-9.6563,0,8.5827,-4.2914,-2.1462,-26.8217,25.7481,
12.8933,6.437,-3.2183,5.3832,-33.2578,6.437,-3.2183,-6.437,-5.3645,8.5832,-6.437,3.2183,-23.6025,23.6025,
20.3832,7.5091,-2.1462,-6.4375,-31.1131,0,0,-4.2914,0,23.5832,1.0726,0,-28.9669,27.8933,
31.1126,3.2183,-1.0731,-12.8736,-26.8212,1.0731,4.2919,-5.3644,3.2183,27.8938,-1.0731,-4.2908,-31.1126,27.8938,
30.04,3.2183,1.0731,-7.5096,-25.7486,16.0731,-3.2183,-1.0731,-5.3645,12.8938,-12.8746,7.5096,-23.6025,30.04,
24.675,10.7284,5.3645,1.0731,-23.6025,19.3111,-5.3644,-4.2908,-6.437,-1.0731,-3.2183,3.2183,-21.4573,30.04,
18.2385,11.801,2.1457,3.2183,-37.5491,4.3111,-2.1457,-12.8736,-3.2183,3.2183,7.5096,-11.7817,-34.3314,20.3847,
20.921,11.2647,-0.5368,11.2647,-52.0331,-10.6889,-0.5368,-11.2647,-0.5368,0.5368,3.7546,3.2183,-40.2316,17.7022,
30.5758,15.5555,0.53629,20.9205,-41.3047,4.3111,-2.6825,-6.9738,-0.53629,-0.53629,-3.7551,18.2183,-42.3773,23.0657,
31.1126,22.5299,-5.3645,22.5299,-30.04,12.8736,-2.1457,-7.5096,-10.7284,2.1457,-10.7284,5.3644,-45.0592,24.675,
33.2583,21.4568,0,25.7481,-32.1857,0,8.5827,-1.0736,-9.6563,5.3639,-9.6563,-2.1462,-31.1131,27.8933,
39.6948,15.0192,6.4365,25.7481,-32.1857,-2.1462,3.2188,1.0726,-4.2914,-1.0726,-10.7289,-6.4375,-32.1857,27.8933,
38.6222,19.3106,4.2914,25.7481,-31.1131,-3.2188,-4.2914,2.1452,0,-1.0726,0,-7.5101,-36.477,30.0395,
26.2849,16.6286,-5.9007,13.4109,-41.3042,-6.9733,-6.9733,0.5368,-0.5368,5.9007,5.9007,-6.9733,-29.5037,30.5763,
23.0657,9.119,-5.9013,-0.53629,-32.722,0.53629,-4.8276,2.6815,-5.9013,12.3378,-0.53629,8.0267,-29.5032,28.4306,
27.8943,4.2914,-1.0726,-9.6553,-22.5304,0,0,1.0726,-5.3639,9.6553,-6.4375,22.5294,-33.2583,24.6756,
33.794,11.2647,1.6094,2.682,-27.3575,-2.682,-2.682,-5.9007,-1.6094,3.7546,-6.9733,7.5294,-31.6489,25.2113,
39.6948,16.0918,2.1452,15.0192,-28.9669,5.3639,-15.0203,0,-6.4375,-1.0736,-6.4375,0,-38.6232,27.8933,
35.4039,4.2919,-8.5822,2.1457,-28.9664,7.5106,-18.2375,4.2919,-13.9461,-2.1457,-9.6548,7.5106,-41.8405,20.3847,
32.7225,2.682,-11.2647,-1.6094,-28.4301,1.6094,-17.7012,1.6094,-16.6286,1.6094,-14.4835,4.8282,-32.7215,18.7748,
43.4504,9.1195,-2.682,3.7546,-32.7215,2.682,-8.0459,0.5368,-3.7546,6.9733,-9.1195,-0.5368,-27.3575,27.3575,
56.8607,7.5096,-1.0731,8.5832,-35.4039,4.2919,1.0731,1.0731,-1.0731,-3.2183,-8.5822,-4.2908,-31.1126,26.8212,
65.9797,15.556,3.7546,23.5832,-20.4039,9.1195,-3.7546,2.682,-5.9007,-2.682,-11.2647,-6.9733,-28.4301,26.2849,
52.5694,16.0923,1.0731,28.9664,-8.5832,8.5822,-7.5096,-1.0731,-2.1457,4.2908,-10.7284,-4.2919,-27.8938,23.6025,
37.5694,4.2914,-8.5827,13.9664,-23.5832,3.2188,-5.3639,-3.2188,0,0,-8.5827,5.3639,-32.1857,20.3842,
33.2578,-6.437,-5.3644,-1.0336,-21.4573,-2.1457,1.0731,1.0731,3.2183,2.1457,-3.2183,6.437,-25.7486,23.6025,
40.7684,0,0,-3.2178,-12.8741,0,-11.8005,1.0736,4.2914,10.7289,-6.4365,0,-23.6019,26.8217,
25.7684,12.3378,-5.9002,11.2652,-27.8741,-0.53629,-26.8005,-3.7551,1.6089,11.2652,-10.1916,0.53629,-34.8671,24.1393,
23.0657,10.1916,-1.6099,17.7017,-42.8741,-5.9013,-11.8005,0.53629,6.9728,14.4829,-3.7551,-0.53629,-33.7946,21.9931,
38.0657,3.2183,-4.2919,8.5822,-27.8741,-3.2193,2.1457,-2.1457,-7.5106,9.6548,-8.5832,-11.802,-36.4776,19.3111,
53.0657,6.9733,-3.7546,4.8282,-12.8741,-1.6094,4.8282,-6.9733,-12.3373,1.6094,-8.0459,-15.556,-37.0128,16.6296,
68.0657,11.2642,10.1916,5.9002,2.1259,-16.6094,4.8276,-8.0464,-8.0464,-11.2652,-3.7551,-19.8479,-37.0133,3.7551,
83.0657,17.7017,15.5565,6.9738,17.1259,-26.2844,13.4104,-6.9738,-11.2652,-10.1916,-3.7551,-21.9931,-35.9407,3.7551,
90.6553,18.7748,2.682,6.9733,32.1259,-20.92,18.7748,-9.1185,-12.3373,-2.682,-9.1185,-25.2113,-32.7215,10.1921,
75.6553,21.9931,3.7551,12.3378,47.1259,-24.1393,11.2652,-5.9002,-3.7551,-3.7551,-8.0464,-17.7017,-32.722,15.5565,
60.6553,16.6296,6.9733,9.1195,54.1793,-39.1393,2.682,-10.1921,-2.682,-10.1921,-10.1921,-13.4098,-42.3768,11.2647,
60.6163,10.1916,9.119,17.7017,63.8341,-47.7412,4.8276,-13.4104,-6.9738,-10.1916,-3.7551,-12.3378,-42.3773,3.7551,
57.9338,20.3842,18.239,27.8943,72.9541,-32.7412,5.3639,-10.7279,-11.8015,-11.8015,0,-4.2914,-35.4034,0,
48.278,21.4573,19.3111,12.8943,60.0795,-33.2588,7.5096,-17.1659,-7.5096,-13.9472,-4.2919,-3.2183,-31.1126,3.2183,
43.9867,17.1659,20.3837,3.2183,56.8607,-45.0592,9.6558,-11.801,-5.3645,-7.5096,-3.2183,-5.3645,-32.1852,12.8736,
34.8671,5.9002,20.9205,14.4829,55.2513,-40.2321,3.7551,-9.119,-9.119,-9.119,-3.7551,-14.4829,-41.3047,12.3378,
23.603,1.0726,16.0928,18.238,46.1323,-32.1857,7.5101,-24.119,-8.5827,-11.8015,-1.0726,-15.0203,-41.841,2.1452,
29.5032,16.0726,17.7017,16.6291,38.0859,-33.7946,12.3378,-28.4306,-11.2652,-6.9738,-4.8276,-14.4829,-35.9407,4.8276,
39.1595,20.9205,21.9941,12.3378,44.5235,-38.0859,10.1926,-24.1393,-14.4829,-8.0464,-13.4104,-15.5555,-42.3773,8.0464,
46.1328,23.6025,28.9674,22.5299,59.5235,-27.8938,20.3837,-33.2578,-8.5822,-7.5096,-5.3645,-6.437,-43.9867,5.3645,
37.5496,17.1654,26.8217,25.7481,49.3511,-22.5294,22.5304,-35.4034,-10.7279,-12.8741,-1.0726,-4.2914,-40.7684,1.0726,
22.5496,3.2188,21.4568,11.8015,40.7684,-28.9669,17.1654,-27.8943,-15.0203,-8.5827,-3.2188,-3.2188,-33.2583,9.6553,
21.4568,5.3639,9.6563,0,45.0598,-33.2583,3.2188,-35.4034,-19.3106,-3.2188,-10.7279,0,-41.841,7.5101,
36.4568,14.484,12.3378,8.0464,44.5235,-30.5758,3.7551,-34.8671,-10.1916,-9.119,-14.4829,-2.6825,-37.0133,2.6825,
40.2321,14.484,27.3378,14.484,45.596,-31.6484,4.8276,-29.5032,-11.2642,-4.8276,-17.7017,-9.119,-29.5032,15.5565,
25.2321,2.1457,24.675,5.3644,43.9867,-40.7679,-2.1457,-36.4765,-18.2385,3.2183,-16.0923,-15.0197,-38.6227,11.801,
29.5027,-1.6094,11.2647,1.6094,41.3042,-46.6691,8.0459,-45.5966,-8.0469,6.9733,-13.4109,-21.9936,-42.3778,2.682,
44.5027,12.3383,10.1921,16.6094,50.9605,-31.6691,8.0469,-41.3042,-14.4835,-5.9007,-23.0662,-14.4835,-43.4504,5.9007,
40.2311,18.7743,10.1916,29.5032,65.9605,-16.6691,5.9002,-37.0133,-27.358,-15.5566,-26.2844,-3.7551,-46.6686,3.7551,
37.0128,20.921,17.7022,19.8474,80.9605,-9.1195,19.8474,-32.7215,-15.556,-5.9007,-11.2844,-11.2647,-32.7215,5.9007,
28.4306,11.2652,19.8479,4.8474,65.9605,-23.0667,15.5565,-35.9407,-5.9002,-4.8276,-9.119,-23.0667,-20.9205,12.3378,
16.0923,2.1457,11.801,10.7284,50.9605,-34.3314,10.7284,-34.3314,-8.5822,-2.1457,-13.9472,-12.8736,-24.675,11.801,
28.4306,4.8276,8.0464,14.484,59.5427,-34.8671,11.2652,-35.9407,-19.8479,-0.53629,-19.8479,-11.2652,-37.0133,0.53629,
43.4306,3.7551,8.0464,5.9002,74.5427,-26.2844,20.9205,-44.5235,-15.5565,-3.7551,-12.3378,-20.9205,-29.5032,5.9002,
42.9141,9.6558,-2.1457,7.5096,79.3901,-11.2844,24.675,-34.3314,-4.2919,2.1457,-3.2183,-9.6558,-20.3847,20.9002,
34.3314,19.3111,-5.3645,9.6558,66.517,-9.6558,9.675,-28.9664,-13.9472,3.2183,-18.2183,-3.2183,-35.3847,15.0197,
38.0864,15.556,9.6355,14.4835,71.3447,-23.0662,9.1195,-34.8677,-15.556,-2.682,-20.92,-15.556,-45.5955,2.682,
26.8207,8.5827,20.3842,22.5294,64.3703,-25.7481,10.7289,-23.603,-13.9467,-13.9467,-8.5827,-11.8015,-42.9136,8.5827,
17.7017,3.7551,5.3842,8.0464,55.2513,-30.5758,-1.6089,-27.357,-19.8479,-21.9931,-18.7743,1.6089,-46.6686,5.9013,
32.7017,5.9002,5.9002,-4.8276,53.1062,-26.2844,4.8276,-38.0859,-16.6291,-8.0464,-18.7753,5.9002,-42.3773,5.9002,
33.2583,9.6553,9.6553,3.2188,51.4963,-15.0203,11.8015,-33.2583,-19.3116,-3.2188,-3.7753,-7.5101,-40.7684,10.7289,
29.5032,12.3378,8.0464,14.484,61.6889,-6.9728,8.0464,-28.4296,-17.7017,-8.0464,-4.8276,-19.8469,-39.1585,4.8276,
44.5032,21.4573,13.9472,24.675,63.2983,-6.437,6.437,-30.04,-12.8746,-5.3645,-19.8276,-18.2385,-38.6227,5.3645,
36.4765,10.7284,15.0197,12.8746,48.2983,-21.437,13.9472,-32.1852,-17.1659,-9.6558,-25.7486,-18.2385,-39.6953,9.6558,
21.4765,3.7546,20.92,-2.1254,44.5229,-21.9936,24.1388,-25.2124,-6.9733,-4.8282,-10.7486,-17.7022,-26.2849,9.1185,
18.7748,2.682,20.92,-2.682,59.5229,-13.4109,14.4835,-38.0864,-9.1195,-5.9007,2.682,-21.9936,-21.9936,3.7546,
17.7022,5.9007,21.9936,5.9007,53.1057,-19.8474,13.4109,-50.9605,-14.4835,-8.0459,-3.7546,-21.9936,-24.1388,3.7546,
23.603,12.8741,25.7481,-1.0726,48.2775,-27.8943,24.6756,-36.477,-12.8741,-7.5101,1.0726,-13.9467,-19.3116,6.4365,
24.6756,6.4375,22.5294,-12.8741,53.6425,-22.5294,27.8943,-25.7481,-10.7279,-4.2914,4.2914,-7.5101,-6.4365,10.7289,
9.6756,-3.2188,24.6756,-12.8741,42.9136,-26.8217,15.0192,-38.6222,-12.8741,3.2188,4.2914,-11.8015,-6.4375,18.238,
1.0726,4.2914,26.8207,-1.0726,40.7684,-31.1131,4.2914,-39.6958,-15.0203,2.1452,-1.0726,-3.2188,-19.3116,16.0928,
7.5106,-1.0731,13.9472,1.0731,47.2054,-30.039,5.3644,-26.8212,-17.1649,-7.5096,-7.5096,6.437,-25.7476,2.1457,
11.2647,-6.9733,12.3373,3.7546,44.523,-24.1388,3.7546,-23.0662,-16.6296,-5.9007,-1.6094,1.6094,-26.2849,6.9733,
14.4835,-0.5368,21.9936,6.9733,38.0864,-25.2124,-1.6094,-30.5763,-12.3373,0.5368,0.5368,-13.3906,-29.5037,16.6286,
21.9936,1.6094,16.6296,4.8282,44.5229,-28.4301,8.0459,-40.2316,-12.3373,-1.6094,-6.9733,-23.0662,-37.0128,10.1921,
20.3842,5.3639,15.0203,17.1654,57.9338,-19.3116,19.3116,-31.1121,-18.238,-5.3639,-7.5101,-11.8015,-38.6222,7.5101,
11.2647,1.6094,18.7748,5.9007,48.8143,-24.1388,16.6296,-29.5027,-19.8474,-1.6094,-1.6094,-15.556,-31.6489,9.1195,
15.556,-1.6094,19.8474,-9.0993,47.7417,-39.1388,17.7022,-37.0128,-15.556,1.6094,3.7546,-17.7022,-23.0662,6.9733,
24.1388,1.6094,18.7748,-3.7546,62.7417,-41.3042,17.7022,-41.3042,-10.1921,-0.5368,0.5368,-13.4109,-25.2113,10.1921,
28.4301,4.8282,21.9936,1.6094,75.636,-26.3042,19.8474,-40.2316,-5.9007,-1.6094,-1.6094,-21.9936,-26.2849,8.0459,
30.0395,16.0928,27.8943,-4.2914,60.636,-27.8943,19.3106,-35.4045,-9.6553,3.2188,0,-25.7481,-20.3842,0,
26.8207,7.5091,24.6756,-15.0203,45.636,-41.841,16.0918,-40.7684,-9.6563,12.8741,0,-21.4578,-19.3116,0,
32.722,2.6825,28.4306,-4.8276,43.4499,-26.841,20.9205,-38.0859,-2.6825,15.5565,-3.7551,-9.119,-16.6291,13.4104,
22.5294,-1.0726,13.4306,-4.2914,28.4499,-11.841,5.9205,-37.5496,-17.6825,1.0726,-18.7551,-22.5294,-31.6291,6.4375,
20.921,2.682,-1.5694,-0.5368,13.4499,0.5368,4.8282,-22.5496,-8.0459,16.0726,-3.7551,-18.7748,-20.92,6.9733,
27.3575,9.1195,-4.8282,-3.7546,0.5368,-8.0459,16.6286,-17.7022,-0.5368,18.7748,11.2449,-6.9733,-5.92,10.1921,
34.8671,4.8276,9.119,-6.9738,3.7551,-18.7743,20.9205,-27.358,-4.8276,3.7748,2.6825,-10.1916,-8.0464,6.9738,
47.2054,5.3645,15.0197,8.0262,15.0197,-9.6558,11.801,-18.2385,-9.6558,-5.3645,-10.7284,-12.8746,-22.5299,15.0197,
51.4963,13.9467,5.3639,22.5294,17.1654,3.2188,-3.199,-22.5294,-22.5294,-4.2914,-21.4568,-20.3842,-37.5299,7.5101,
52.5699,18.239,12.8741,7.5294,5.3639,3.2188,9.6563,-32.1847,-12.8741,-3.2188,-10.7279,-25.7481,-22.5299,-7.4899,
54.715,13.9467,22.5294,-4.2914,1.0726,-2.1462,17.1654,-26.8217,-1.0726,0,0,-18.238,-7.5299,1.0726,
52.0326,5.9002,14.4829,-0.53629,0.53629,-2.6825,10.1916,-20.9205,-3.7551,2.6825,-4.8276,-4.8276,-11.2652,16.0726,
47.7422,11.2652,12.3378,-1.6089,-2.6815,0.53629,11.2652,-26.2844,-5.9002,3.7551,-0.53629,-15.5555,-8.0464,11.2652,
49.8869,17.7022,13.4109,2.682,-1.6094,-4.8282,11.2647,-25.2124,-12.3373,-0.5368,5.9007,-30.5555,-0.5368,0.5368,
46.1318,7.5096,1.0731,3.2183,-1.0731,-10.7284,9.6558,-18.2385,-11.801,-2.1457,3.2183,-22.5299,-6.437,15.0197,
31.6484,6.9728,-8.0464,-11.2652,6.9728,-3.7551,8.0464,-17.7017,-3.7551,0.53629,0.53629,-7.5299,-8.0464,24.1393,
26.2844,3.7551,-5.9002,-12.3378,1.6089,-4.8276,9.119,-15.5566,-0.53629,0.53629,3.7551,-2.6825,-1.6089,14.4829,
41.2844,1.0731,-5.3644,2.6622,-5.3644,-6.437,13.9472,-6.437,-1.0731,6.437,8.5822,-4.2919,-2.1457,19.3111,
47.7412,2.6825,-3.7551,15.5565,0.53629,-8.0464,3.7551,-16.6291,-16.0731,3.7551,-0.53629,-6.9738,-14.4829,20.9205,
46.6686,3.7551,11.2449,0.55655,4.8276,-12.3378,6.9738,-28.4296,-18.7743,-0.53629,-3.7551,-15.5555,-10.1916,12.3378,
50.4237,1.0726,25.7481,-1.0726,-1.0726,-16.0928,11.8015,-19.3106,-3.7743,5.3639,2.1462,-10.7279,-6.4365,8.5827,
46.1323,-9.6563,10.7481,1.0726,-15.0203,-23.603,0,-22.5304,-5.365,13.9467,0,2.1452,-11.8015,6.4365,
48.8143,-4.8271,6.9733,8.0469,-15.556,-24.1388,-2.682,-27.3575,-6.9733,15.5571,2.682,6.9733,-4.8271,17.7022,
52.0326,4.8276,16.6291,11.2652,-6.9738,-15.5566,-3.7551,-28.4306,-12.3378,3.7551,0.53629,-0.53629,-9.119,12.3378,
50.4247,4.2914,9.6563,7.5101,4.2914,-3.2178,0,-25.7481,-15.0192,0,-6.4365,-7.5091,-16.0918,0,
48.8148,4.8276,10.1926,2.6825,9.12,-0.53629,0.53629,-24.1382,-17.7017,-2.6815,-21.4365,-17.7017,-16.6291,5.9013,
50.4232,12.8736,20.3837,-4.2919,9.6548,-6.437,8.5822,-21.4573,-7.5106,2.1457,-9.6558,-17.1659,-2.1457,20.9013,
35.4232,5.9007,5.3837,-14.4835,-5.3452,-17.7022,12.3373,-18.7748,-2.682,2.682,5.3442,-13.4109,-6.9733,21.9926,
23.0662,15.556,-9.6163,0.51655,-16.6286,-2.7022,-1.6094,-8.0459,-8.0459,9.1195,1.6094,-5.9007,-20.92,17.7022,
35.4039,30.04,-8.5832,15.5165,-18.2385,12.2978,-6.437,-4.2919,-2.1457,24.1195,-1.0731,1.0731,-11.801,26.8212,
26.8212,15.04,-11.801,7.5096,-33.2385,5.3645,-5.3645,-17.1659,-6.437,15.0197,9.6558,-6.437,-15.0197,19.3111,
21.9936,6.9733,-9.1195,-2.682,-27.3575,5.9007,2.682,-13.4109,-2.682,9.1195,17.7022,-2.682,-12.3373,20.92,
18.7743,8.0464,-11.2652,-0.53629,-29.5032,12.3378,1.6089,-11.2652,-1.6099,0.53629,2.7022,-8.0464,-8.0464,21.9931,
19.8474,11.2647,-15.556,6.9733,-37.0138,11.2647,-1.6094,-6.9733,-9.1195,1.6094,-5.9007,2.682,-15.556,17.7022,
27.8938,8.5832,-12.8736,3.2183,-28.9664,7.5096,-3.2183,-18.2385,-11.801,8.5832,-6.437,16.0934,-19.3111,11.802,
42.8938,14.4835,-3.7546,-3.7546,-16.6286,8.0469,2.682,-20.92,-2.682,18.7748,-1.6094,1.6094,-4.3111,13.4109,
52.0336,12.3378,1.6099,-16.6291,-23.0657,-3.7551,4.8276,-11.2642,-4.8276,11.2652,0.53629,-13.3906,-0.53629,13.4104,
50.9595,8.0459,4.8271,-11.2647,-20.921,-6.9733,8.0459,-13.4109,-2.682,1.6094,5.9007,-19.8484,-1.6094,10.1921,
57.9338,16.0928,0,0,-11.8015,-1.0726,4.2914,-22.5294,-7.5101,-4.2914,4.2914,-4.8484,1.0726,11.8015,
56.8602,16.0918,0,-7.5101,-16.0928,-4.2914,4.2914,-13.9477,-1.0736,0,6.4365,-2.1462,4.2914,20.3832,
41.8602,5.3645,-9.6558,-21.4573,-25.7486,-7.5096,-2.1457,-7.5096,2.1457,10.7284,6.437,-4.2919,5.3645,18.2385,
26.8602,2.1452,-24.6558,-19.3116,-26.8217,1.0726,-8.5827,-13.9467,-10.7289,8.5827,1.0726,6.4365,-1.0726,15.0192,
21.9936,-0.5368,-26.2849,-12.3373,-33.7951,3.7546,-0.5368,-13.4109,-13.4109,4.8282,3.7546,17.7022,0.5368,20.921,
18.2385,-4.2908,-11.2849,-1.0731,-39.6953,-2.1457,1.0731,-4.2908,-8.5822,4.2919,2.1457,23.6025,9.6558,21.4573,
20.3842,-7.5091,0,10.7289,-35.4034,-9.6553,0,-6.4365,-8.5827,2.1462,-1.0726,25.7492,8.5827,17.1654,
23.0667,-0.53629,-3.7551,12.3378,-20.4034,-5.9002,5.9013,-10.1916,-11.2642,-2.6815,0.53629,19.8479,2.6825,16.6291,
16.6291,3.7551,-6.9728,5.9013,-14.4829,0.53629,1.6099,-11.2642,-18.7743,-6.9728,-4.8276,4.8479,-0.53629,17.7027,
22.5294,0,1.0726,3.2178,-28.9669,2.1452,3.2178,-11.8015,-16.0928,-10.7289,-6.4375,-9.6563,0,8.5827,
37.5294,10.7279,16.0726,9.6553,-16.0928,9.6553,6.4365,-8.5827,-16.0928,-15.0203,1.0726,-6.4375,-1.0726,-2.1462,
52.5294,22.5294,25.7481,11.8015,-1.0928,10.7279,3.2188,-13.9467,-22.5294,-15.0203,-3.2188,-20.3842,-3.2188,-3.2188,
67.5294,31.1131,13.9477,5.365,13.9072,5.365,0,-23.6019,-24.6745,-16.0918,-15.0192,-23.6019,-7.5091,0,
82.5294,46.1131,9.6563,3.2188,28.9072,20.365,0,-13.9467,-28.9669,-25.7481,-17.1654,-17.1654,-18.238,0,
97.5294,61.1131,11.8015,6.4375,43.9072,35.365,4.2914,-4.2914,-27.8933,-18.238,-9.6553,-20.3832,-10.7279,-8.5827,
112.5294,76.1131,18.7748,13.4109,58.9072,50.365,2.682,-16.6286,-26.2839,-9.1185,-16.6286,-26.2839,-2.682,-14.4835,
127.5294,76.1723,20.3847,16.0934,73.9072,59.0069,5.3645,-12.8736,-25.7476,-8.5822,-15.0197,-24.675,-5.3645,-11.801,
135.1782,71.8805,22.5294,19.3106,88.9072,57.9338,7.5101,-10.7289,-24.6756,-9.6563,-15.0203,-23.603,-7.5101,-9.6563,
127.6681,67.5891,23.603,20.3842,84.7545,56.8612,8.5827,-8.5827,-25.7481,-10.7289,-15.0203,-23.603,-11.8015,-8.5827,
118.0133,61.1521,23.6025,21.4573,75.0987,53.642,8.5832,-8.5832,-27.8938,-12.8746,-17.1659,-25.7486,-16.0923,-8.5832,
107.8212,55.2513,21.9931,20.9205,64.9077,49.8874,8.0464,-8.0464,-30.5758,-16.6291,-18.7743,-27.357,-21.9931,-9.119,
98.1649,48.8138,21.9931,21.9931,55.2513,46.6686,8.0464,-8.0464,-31.6494,-18.7753,-20.9205,-28.4306,-26.2854,-9.12,
85.8276,41.8415,20.3837,21.4573,42.9141,42.9141,7.5096,-7.5096,-34.3314,-23.6025,-23.6025,-31.1126,-34.3314,-9.6558,
70.8276,37.5491,24.675,20.3837,31.1126,40.7679,2.1457,-3.2183,-36.4765,-20.3847,-17.1659,-23.6025,-34.3314,-2.1457,
66.516,38.6217,17.1649,26.8212,24.675,40.7679,1.0731,-1.0731,-34.3314,-15.0197,-20.3847,-8.6025,-30.04,-1.0731,
58.4701,34.8671,6.9738,20.9205,11.2652,34.8671,-0.53629,-1.6089,-33.7946,-17.7017,-32.722,-3.7551,-34.8671,0.53629,
43.4701,25.2124,1.6094,5.9205,3.7556,25.2124,-5.9007,2.682,-31.6489,-20.92,-28.4301,-5.9007,-35.9402,-1.6094,
28.4701,16.0923,-6.437,-2.1457,2.1457,12.8736,9.0993,3.2183,-18.2385,-10.7284,-13.4301,-6.437,-20.9402,7.5096,
20.9205,12.3378,-16.6291,-6.9728,-1.6089,9.119,18.7753,0.53629,-11.2642,-1.6089,1.5699,-0.53629,-9.119,17.7017,
11.8015,2.1452,-16.0928,-8.5827,-1.0726,8.5827,11.8015,-1.0726,-6.4375,1.0726,-1.0726,9.6553,-15.0203,13.9467,
-1.0726,6.4375,-2.1452,6.4173,1.0726,11.8015,9.6553,-2.1452,-7.5101,-8.5827,-8.5827,13.9477,-26.8207,6.4375,
-2.1462,11.8015,0,16.0928,-13.9274,9.6553,8.5827,0,-19.3116,-22.5294,-18.238,5.3639,-31.1121,1.0726,
-4.2914,7.5091,-4.2914,8.5827,-28.9274,8.5827,8.5827,4.2914,-16.0928,-10.7289,-8.5827,7.5091,-17.1654,8.5827,
-16.6286,5.9007,-9.1195,9.1195,-14.4835,11.2647,2.682,4.8282,-10.1921,-2.682,-3.7546,20.921,-17.7022,15.556,
-16.6291,6.9738,-11.2642,10.1926,-11.2642,16.6291,4.8276,6.9738,-4.8276,-8.0464,-5.9002,24.1393,-24.1382,10.1926,
-5.9013,4.8276,-6.9738,13.4104,-23.0667,27.357,13.4104,12.3378,-5.9013,-4.8276,-4.8276,20.9205,-15.5566,13.4104,
-8.0459,2.682,-4.8271,24.1388,-19.8474,29.5037,13.4109,16.6296,-8.0459,-2.682,-2.682,28.4311,-9.1185,24.1388,
-10.1921,0.5368,-2.682,17.7022,-20.92,20.921,6.9733,9.1195,-0.5368,-4.8282,-0.5368,25.2124,-16.6286,20.921,
-12.3378,-1.6089,-10.1916,2.7022,-20.9205,17.7017,0.53629,4.8276,-0.53629,2.6825,0.53629,15.5566,-21.9931,17.7017,
-27.3378,-10.7284,-18.2385,-12.2978,-16.0934,8.5822,11.801,2.1457,-2.1457,7.5096,6.437,21.4563,-6.9931,27.8938,
-35.9402,-9.1195,-17.7022,-14.4835,-13.4109,-3.7556,15.556,-1.6094,4.8271,3.7546,6.9733,18.7748,1.6094,27.3575,
-20.9402,5.8805,-11.8015,0.51654,-3.2188,11.2444,4.2914,-1.0726,0,0,-6.4365,8.5827,-13.3906,15.0203,
-15.5565,3.7551,-8.0464,10.1916,-0.53629,26.2444,2.6815,0.53629,-5.9013,-4.8276,-5.9013,5.9002,-28.3906,15.5565,
-22.5304,-2.1462,-9.6563,4.2914,-8.5827,22.5294,8.5827,0,0,-6.4375,5.3639,3.2178,-18.239,23.602,
-15.5555,-0.53629,-9.119,-10.1916,-10.1916,12.3378,10.1926,-1.6089,2.6825,0.53629,2.6825,3.7551,-5.9002,20.9205,
-6.437,3.2183,4.2908,-12.8746,-3.2183,22.5299,12.8736,-1.0731,-2.1457,1.0731,-6.437,16.0923,-18.2385,16.0923,
-8.0464,8.0464,16.6291,2.1254,-2.6825,26.2844,10.1916,-5.9002,-8.0464,-6.9738,-4.8276,21.9931,-30.5758,17.7017,
-12.8741,1.0726,18.238,11.8015,-17.6825,15.0203,4.2914,-1.0726,-12.8741,-4.2914,-6.4375,11.8015,-25.7481,16.0928,
-17.7022,-4.8282,8.0459,13.4109,-26.2849,16.6286,1.6094,13.9274,-12.3383,-1.6094,-17.7022,16.6286,-25.2124,10.1921,
-15.556,-2.682,0.5368,9.1195,-24.1388,26.2849,4.8282,27.3575,-2.682,-0.5368,-10.1921,25.2124,-28.4301,16.6286,
-16.0928,-10.7279,-2.1452,-5.3639,-38.6222,11.8015,2.1462,12.3575,-1.0726,1.0726,1.0726,10.2124,-24.6756,19.3116,
-13.9467,-6.4365,3.2188,0,-43.9861,6.4375,-2.1452,6.4375,1.0726,1.0726,-2.1452,0,-19.3106,19.3116,
-12.8741,-1.0726,-5.3639,7.5101,-28.9861,19.3116,-2.1452,13.9467,10.7289,-4.2914,1.0726,15,-20.3842,18.238,
-11.2652,0.53629,-20.3639,1.6089,-13.9861,28.4306,-1.6099,16.6291,-0.53629,-3.7551,4.8276,24.1393,-20.9205,18.7743,
-11.2647,-0.5368,-12.3373,6.9733,-20.92,25.2124,2.682,19.8474,-9.1195,0.5368,-6.9733,24.1388,-14.4835,20.921,
-18.7743,-12.3378,-1.6089,10.1916,-35.92,10.2124,4.8276,11.2652,1.6089,-1.6089,-21.9733,27.358,-19.8479,13.4104,
-3.7743,-7.5096,-2.1457,9.6558,-20.92,15.0197,3.2183,8.5832,-3.2183,1.0731,-17.1649,32.1852,-28.9664,20.3847,
11.2257,-1.0726,-4.2914,5.3639,-8.5827,11.8015,1.0726,8.5827,-18.2183,-7.5101,-16.0928,17.1852,-31.1121,10.7289,
22.5299,13.9274,7.5096,18.2385,-13.9472,3.2183,8.5822,21.4573,-9.6558,-12.8746,-9.6558,2.1852,-18.2385,-4.2711,
22.5304,22.5304,0,10.7289,0,1.0736,1.0736,15.0203,-7.5091,-10.7279,-11.8005,-7.5091,-20.3832,-2.1452,
24.6756,12.8741,-1.0726,-4.2711,15,7.5101,4.2914,1.0726,-8.5827,-5.3639,-7.5101,-10.7279,-22.5294,11.8015,
18.239,5.365,4.2914,-15.0192,0,0,5.365,3.2188,-8.5827,-10.7279,0,-7.5091,-18.238,6.4375,
3.239,2.1462,5.365,-7.5091,-15,-11.8005,0,8.5827,-8.5827,-8.5827,0,7.4909,-15.0192,5.365,
2.1457,6.437,5.3645,3.2183,-8.5832,-5.3645,-2.1457,15.0197,-12.8746,-3.2183,-8.5832,11.801,-18.2385,18.2385,
13.4109,8.0469,-2.682,18.2183,-9.1185,9.1195,-4.8271,16.6296,-16.6286,-3.7546,-10.1921,2.682,-23.0662,21.9936,
11.2647,2.682,-14.4835,33.2183,-16.6286,10.1921,-1.6094,14.4835,-10.1921,-0.5368,-8.0459,0.5368,-18.7748,17.7022,
2.1462,0,-13.9467,24.6756,-16.0928,9.6553,-1.0726,21.4568,-7.5101,0,-15.0192,12.8741,-12.8741,22.5304,
9.1195,-0.5368,-5.9007,9.6756,-17.7022,10.1921,-1.6094,20.921,-10.1921,0.5368,-14.4835,17.7022,-9.1195,24.1388,
10.7289,-1.0726,0,2.1462,-18.238,3.2188,0,5.921,-11.8005,3.2188,-4.2914,2.7022,-5.3639,16.0928,
1.0726,-1.0726,6.4365,13.9467,-13.9477,-11.7812,1.0726,2.1452,-9.6553,2.1452,-13.9477,-12.2978,-9.6553,13.9467,
13.9467,-1.0726,13.9467,16.0928,-15.0192,-13.9467,9.6553,12.8741,-2.1452,1.0726,-23.603,-16.0928,-13.9467,16.0928,
24.6761,7.5096,19.3111,3.2183,-10.7284,-1.0731,5.3645,1.0731,-9.6558,-4.2908,-23.6025,-23.6025,-17.1649,7.5096,
9.6761,7.5101,25.7481,1.0726,4.2716,-6.4375,5.3639,-1.0726,-7.5101,-1.0726,-16.0928,-26.8217,-6.4375,8.5827,
-3.7551,-0.53629,21.9931,0.53629,15.5555,-8.0464,6.9728,13.9274,-2.6825,4.8276,-10.1926,-13.4104,-3.7551,18.7743,
-2.6825,-0.53629,14.484,-2.6825,11.2652,6.9536,0.53629,20.9205,-11.2652,-4.8276,-8.0464,0.53629,-18.7551,16.6291,
-5.3639,-1.0726,5.3639,3.2188,6.4375,17.1654,0,5.9205,-11.8015,-10.7279,-10.7279,0,-31.1121,7.5101,
-10.1916,4.8276,-0.53629,16.6291,8.0464,24.1393,-0.53629,13.4104,-8.0464,-0.53629,-14.4829,0.53629,-21.9931,13.4104,
-7.5101,4.2914,0,12.8741,-4.2914,9.6553,0,24.6756,-4.2914,5.3639,-9.6553,-1.0726,-12.8741,16.0928,
-4.8276,-2.6815,2.6825,6.9738,-11.2642,-5.3447,12.3378,18.7753,9.119,-0.53629,0.53629,-2.6815,-5.9002,12.3378,
-14.4835,0.5368,0.5368,-1.6094,-8.0469,-0.5368,19.8474,16.6286,5.9007,-0.5368,-2.682,-3.7546,2.682,14.4835,
-12.3378,-1.6089,-5.9002,-6.9738,-18.7753,3.7551,17.7017,12.3378,1.6089,3.7551,-6.9738,-6.9738,2.6825,5.9002,
-0.5368,-3.7546,-4.8282,3.7546,-23.0662,-5.9007,6.9733,3.7546,0.5368,1.6094,-9.1195,0.5368,-6.9733,4.8282,
-0.53629,3.7551,-4.8276,8.0464,-11.2652,-4.8276,3.7551,-1.6089,1.6089,0.53629,-12.3378,3.7551,-6.9738,19.8282,
0,6.4365,-13.9477,-3.2188,-11.8015,-8.5827,12.8741,0,5.3639,0,-12.8741,-1.0736,4.2914,23.6019,
9.6563,-1.0726,-20.3842,-4.2914,-25.7481,-15.0192,11.8015,13.9477,0,0,-7.5091,3.2188,5.365,9.6563,
6.4375,-10.7289,-19.3116,-13.9467,-33.2583,-18.238,3.2188,23.603,0,2.1462,3.2188,2.1462,-1.0726,0,
-0.53629,-9.119,-14.484,-20.9205,-27.358,-18.7753,2.6825,21.9931,3.7551,12.3378,8.0464,0.53629,-2.6825,8.0464,
5.3645,-6.437,-13.9472,-6.437,-21.4573,-4.2908,3.2183,18.2385,-2.1457,13.9472,2.1457,12.8746,-4.2908,18.2385,
12.8741,-13.9467,-15.0203,6.4365,-6.4573,10.7092,-3.2188,19.3116,-7.5101,3.2188,-4.2914,9.6553,-11.8015,16.0928,
19.3116,-7.5101,-7.5101,8.5827,2.1452,8.5827,-5.3639,22.5294,-6.4375,-3.2188,-1.0726,1.0726,-22.5294,7.5101,
23.0667,-2.6825,-2.6825,4.8276,-12.8548,-5.9002,0.53629,18.7743,-2.6825,3.7551,-0.53629,6.9738,-28.4306,11.2652,
11.801,-2.1457,-4.2919,4.2908,-12.8746,-4.2919,2.1457,21.4563,-2.1457,6.437,-7.5106,12.8736,-23.6035,24.675,
3.7551,3.7551,0.53629,8.0464,-1.6089,-0.53629,-2.6825,25.2118,-2.6825,-0.53629,-8.0464,9.119,-13.4104,24.1393,
14.4835,4.8282,-1.6094,17.7022,-16.6089,-15.5363,-4.8271,15.556,-4.8271,1.6094,-9.1185,1.6094,-13.4098,11.2647,
17.1649,2.1457,-4.2919,18.2385,-28.9674,-23.6025,-2.1457,11.801,-8.5832,11.801,-13.9472,4.2908,-18.2385,10.7284,
11.2647,-1.6094,1.6094,3.2385,-18.7748,-15.5571,3.7546,12.3373,-3.7556,12.3373,-6.9733,2.682,-9.1195,16.6286,
21.4568,0,1.0726,-11.7615,-6.4375,-11.8015,3.2178,3.2178,-1.0736,3.2178,-1.0736,0,-1.0736,18.238,
34.3308,5.3639,-2.1462,-25.7492,8.5625,0,0,4.2914,-4.2914,0,-5.365,11.8005,-4.2914,20.3832,
23.6025,1.0731,-6.437,-10.7492,12.8736,3.2183,-1.0731,12.8736,-7.5096,-1.0731,-11.801,13.9472,-15.0197,17.1649,
11.2652,3.7551,-8.0464,3.7551,-0.53629,8.0464,-11.2642,20.9205,-13.4104,-3.7551,-13.4104,0.53629,-21.9931,13.4114,
7.5096,3.2183,-7.5096,-6.437,1.0731,16.0923,-3.2183,26.8212,-1.0731,7.5096,-4.2919,-8.5832,-8.5832,22.5299,
-0.53629,-3.7551,-13.4104,-19.8479,-1.6089,9.119,2.6825,15.5566,8.0464,10.1916,-0.53629,-2.6825,0.53629,31.6484,
2.6825,0.53629,-12.3378,-19.8479,-11.2642,-0.53629,-8.0464,11.2652,1.6099,4.8276,-6.9728,3.7551,-10.1916,30.5768,
13.9467,4.2914,1.0726,-19.3116,-12.8741,-3.2188,0,19.3116,4.2914,0,-3.2188,-8.5827,-15.0192,18.238,
18.7753,3.7551,5.9013,-18.7743,-4.8276,-6.9728,10.1926,21.9931,-0.53629,-6.9728,0.53629,-15.5566,-10.1916,4.8276,
12.8741,2.1462,0,-22.5294,-3.2188,-12.8741,11.8015,19.3116,-1.0726,3.2188,-3.2188,-5.3639,0,12.8741,
2.6825,0.53629,-5.9002,-32.722,-8.0464,-6.9728,10.1926,20.9205,-0.53629,4.8276,-1.6089,-2.6815,1.6099,25.2118,
8.0464,3.7551,-16.6291,-30.5758,3.7551,3.7551,-0.53629,18.7753,-10.1916,-10.1724,-0.53629,0.53629,-11.2652,14.4829,
18.2385,1.0731,-18.2385,-30.04,10.7284,8.5832,-1.0731,18.2385,-8.5822,-9.6558,-1.0731,13.9472,-17.1649,10.7284,
15.5566,-1.6089,-14.4829,-34.8671,-0.53629,3.7551,0.53629,19.8479,-6.9738,4.8276,-4.8276,6.9738,-15.5565,16.6291,
20.9205,2.6825,-3.7551,-24.1393,4.8276,-1.6089,1.6089,21.9931,-4.8276,0.53629,-0.53629,-3.7551,-11.2652,20.9205,
21.4563,8.5822,5.3634,-9.1393,6.437,-9.6558,2.1457,20.3837,-5.3645,-10.7284,-2.1457,-15.0197,-11.802,15.0197,
7.5096,18.2385,6.437,2.1457,-8.563,-6.437,11.801,21.4563,-7.5096,-5.3645,-2.1457,-23.6025,-7.5096,20.3837,
-5.3645,11.801,2.1457,-5.3645,-16.0923,1.0731,13.9472,26.8212,-1.0731,-4.2908,4.2919,-12.8746,-2.1457,19.3111,
-6.9728,1.6099,0.53629,-1.6089,-8.0464,1.6099,-0.53629,32.722,-4.8276,-9.119,0.53629,2.1254,-2.6815,13.4104,
-8.0464,3.7551,4.8276,0.53629,0.53629,1.6089,-0.53629,28.4306,-15.5566,-4.8276,-2.6825,-5.9002,-4.8276,16.6291,
-13.9472,5.3645,8.5832,-12.8736,2.1457,3.2183,5.3645,23.6025,-15.0197,-5.3645,-5.3645,-11.801,-2.1457,13.9472,
-23.603,6.4375,6.4375,-15.0192,1.0726,-1.0726,1.0726,28.9669,-8.5827,-8.5827,-13.9467,2.1462,-2.1452,11.8015,
-31.6494,1.6089,2.6815,-8.0464,1.6089,-4.8276,0.53629,31.6484,-10.1926,-0.53629,-13.4104,1.6089,-8.0464,17.7017,
-36.477,0,10.7279,-9.6563,8.5827,1.0726,0,31.1121,-18.239,3.2178,-9.6563,-6.4375,-11.8015,20.3832,
-39.159,2.682,25.7279,-5.9007,15.556,8.0459,-2.682,34.8677,-12.3383,-2.682,-10.1921,4.8271,-13.4109,15.556,
-43.4504,1.6094,20.921,-1.6094,19.8474,14.4835,-5.9007,30.5763,-6.9733,-4.8282,-14.4835,13.4109,-9.1195,10.1921,
-42.3773,5.9002,12.3378,3.7551,27.358,20.9205,-4.8276,35.9407,-16.6291,-3.7551,-11.2652,-1.5891,-8.0464,16.6291,
-49.8869,2.682,10.1921,6.9733,18.7748,14.4835,-2.682,40.2316,-21.9926,-10.1921,-9.1185,-16.5891,-13.4098,11.2647,
-50.4242,3.2183,9.6558,15.0197,15.0197,8.5822,-3.2183,28.9664,-18.2385,-11.801,-13.9472,-9.6558,-12.8746,6.437,
-38.6227,3.2183,10.7284,18.2385,26.8212,6.437,-4.2908,13.9664,-19.3111,-9.6558,-16.0923,-3.2183,-12.8736,6.437,
